###################################################################
## OUTPUT of StarlightChains_v04.for    [Cid@UFSC - 01/Apr/2007] ##
###################################################################

## Some input info
M33_LS4_20211119f_1.spec                 [arq_obs]
Base.BC03.N                              [arq_base]
Mask.EmLines_CHAOS_focusbluefit.gm       [arq_masks]
StCv04.C11.config                        [arq_config]
   45                                    [N_base]
    0                                    [N_YAV_components = # of components with extra extinction!]
    0                                    [i_FitPowerLaw (1/0 = Yes/No)]
-9.99                                    [alpha_PowerLaw]
CCM                                      [red_law_option]
 1.458241                                [q_norm = A(l_norm)/A(V)]

## (Re)Sampling Parameters
 3100.00                                 [l_ini (A)]
 5300.00                                 [l_fin (A)]
    1.00                                 [dl    (A)]     (OBS: dl_cushion =    50.00 A)

## Normalization info
 4020.00                                 [l_norm (A) - for base]
 4010.00                                 [llow_norm (A) - window for f_obs]
 4060.00                                 [lupp_norm (A) - window for f_obs]
7.646527E-16                             [fobs_norm (in input units)]

## S/N
 4730.00                                 [llow_SN (A) - window for S/N]
 4780.00                                 [lupp_SN (A) - window for S/N]
  66.638                                 [S/N in S/N window]
 101.674                                 [S/N in norm. window]
  53.427                                 [S/N_err in S/N window]
  81.517                                 [S/N_err in norm. window]
  1.0000                                 [fscale_chi2]

## etc...
    -2007205                             [idum_orig]
  1493                                   [NOl_eff]
   928                                   [Nl_eff]
   565    NSIGMA                         [Ntot_cliped & clip_method]
   468160                                [Nglobal_steps]
   7                                     [N_chains]
   5                                     [NEX0s_base = N_base in EX0s-fits]
 0   0   1        0   2.0   1.099E+02    [Clip-Bug, RC-Crash & Burn-In warning-flags, n_censored_weights, wei_nsig_threshold & wei_limit]
     5      4.403      4.387      0.016  [idt_all, wdt_TotTime, wdt_UsrTime & wdt_SysTime (sec)]

## Synthesis Results - Best model ##

 2.00125E+00                             [chi2/Nl_eff]
     2.33290                             [adev (%)]

   106.56762                             [sum-of-x (%)]
 5.83852E-16                             [Flux_tot (units of input spectrum!)]
 1.07130E-11                             [Mini_tot (???)]
 5.42111E-12                             [Mcor_tot (???)]

 238.07                                  [v0_min  (km/s)]
 358.08                                  [vd_min  (km/s)]
-0.2482                                  [AV_min  (mag)]
 0.0000                                  [YAV_min (mag)]

# j     x_j(%)      Mini_j(%)     Mcor_j(%)     age_j(yr)     Z_j      (L/M)_j    YAV?  Mstars   component_j        a/Fe...       SSP_chi2r SSP_adev(%)   SSP_AV   SSP_x(%)
  1     94.8918     4.3562E-01    8.6086E-01    1.000000E+06  0.00400  1.114E-02    0   1.0000   age020_m42            0.0000     7.4614E+00     4.7533   0.6568   106.5473
  2      0.0000     0.0000E+00    0.0000E+00    3.160000E+06  0.00400  4.073E-02    0   0.9999   age045_m42            0.0000     3.8916E+01    11.0553  -0.3444   119.8965
  3      0.0000     0.0000E+00    0.0000E+00    5.010000E+06  0.00400  2.534E-02    0   0.9488   age055_m42            0.0000     2.4103E+01     8.7116   0.0694   114.2827
  4      0.0000     0.0000E+00    0.0000E+00    1.000000E+07  0.00400  1.271E-02    0   0.8862   age070_m42            0.0000     2.7918E+01     9.1461  -0.5771   116.9165
  5      0.0000     0.0000E+00    0.0000E+00    2.512000E+07  0.00400  5.070E-03    0   0.8174   age090_m42            0.0000     3.1342E+01     9.8010  -0.7352   118.9987
  6      0.0000     0.0000E+00    0.0000E+00    4.000000E+07  0.00400  3.505E-03    0   0.7851   age104_m42            0.0000     4.0719E+01    11.1504  -1.0000   120.7480
  7      0.0000     0.0000E+00    0.0000E+00    1.015200E+08  0.00400  2.268E-03    0   0.7207   age116_m42            0.0000     1.1265E+02    17.7732  -1.0000   125.1807
  8      0.0000     0.0000E+00    0.0000E+00    2.861200E+08  0.00400  1.079E-03    0   0.6613   age125_m42            0.0000     1.6259E+02    19.0154  -1.0000   118.6294
  9      0.0000     0.0000E+00    0.0000E+00    6.405400E+08  0.00400  5.077E-04    0   0.6197   age132_m42            0.0000     1.9643E+02    21.5006  -1.0000   115.4291
 10      0.0000     0.0000E+00    0.0000E+00    9.047900E+08  0.00400  3.535E-04    0   0.6024   age135_m42            0.0000     2.1187E+02    23.4125  -1.0000   110.2241
 11      0.0000     0.0000E+00    0.0000E+00    1.434000E+09  0.00400  1.910E-04    0   0.5716   age139_m42            0.0000     2.7143E+02    28.0024  -1.0000    98.0393
 12      0.0000     0.0000E+00    0.0000E+00    2.500000E+09  0.00400  9.818E-05    0   0.5463   age150_m42            0.0000     3.2235E+02    31.6975  -1.0000    88.5429
 13      0.0000     0.0000E+00    0.0000E+00    5.000000E+09  0.00400  4.718E-05    0   0.5228   age161_m42            0.0000     3.6073E+02    33.9344  -1.0000    82.7923
 14      0.0000     0.0000E+00    0.0000E+00    1.100000E+10  0.00400  2.205E-05    0   0.4980   age185_m42            0.0000     4.2964E+02    37.1358  -1.0000    75.5330
 15      0.0000     0.0000E+00    0.0000E+00    1.300000E+10  0.00400  1.883E-05    0   0.4927   age193_m42            0.0000     4.3595E+02    37.3899  -1.0000    75.1209
 16      0.0000     0.0000E+00    0.0000E+00    1.000000E+06  0.02000  1.989E-02    0   1.0000   age020_m62            0.0000     8.1382E+00     4.8920   0.6183   107.4812
 17      0.0000     0.0000E+00    0.0000E+00    3.160000E+06  0.02000  3.772E-02    0   0.9858   age045_m62            0.0000     1.3408E+01     6.5034   0.4466   110.3556
 18      0.0000     0.0000E+00    0.0000E+00    5.010000E+06  0.02000  3.227E-02    0   0.9342   age055_m62            0.0000     3.8170E+01    10.8365  -0.1060   116.8372
 19      0.0000     0.0000E+00    0.0000E+00    1.000000E+07  0.02000  1.011E-02    0   0.8751   age070_m62            0.0000     1.3276E+01     6.1719  -0.4157   114.4518
 20      0.0000     0.0000E+00    0.0000E+00    2.512000E+07  0.02000  4.206E-03    0   0.8099   age090_m62            0.0000     2.0534E+01     7.9960  -0.6168   115.6392
 21      0.0000     0.0000E+00    0.0000E+00    4.000000E+07  0.02000  3.373E-03    0   0.7799   age104_m62            0.0000     4.7961E+01    12.3209  -0.8780   122.2694
 22      0.0000     0.0000E+00    0.0000E+00    1.015200E+08  0.02000  1.878E-03    0   0.7221   age116_m62            0.0000     1.0529E+02    17.5758  -1.0000   126.6050
 23      0.0000     0.0000E+00    0.0000E+00    2.861200E+08  0.02000  8.869E-04    0   0.6700   age125_m62            0.0000     1.9450E+02    21.1533  -1.0000   122.8732
 24      0.0000     0.0000E+00    0.0000E+00    6.405400E+08  0.02000  3.657E-04    0   0.6322   age132_m62            0.0000     2.5499E+02    25.4861  -1.0000   111.5028
 25      0.0000     0.0000E+00    0.0000E+00    9.047900E+08  0.02000  2.312E-04    0   0.6152   age135_m62            0.0000     2.8656E+02    28.0513  -1.0000   102.7741
 26      0.0000     0.0000E+00    0.0000E+00    1.434000E+09  0.02000  1.168E-04    0   0.5865   age139_m62            0.0000     3.4393E+02    32.4281  -1.0000    89.5971
 27      0.0000     0.0000E+00    0.0000E+00    2.500000E+09  0.02000  5.505E-05    0   0.5610   age150_m62            0.0000     4.2492E+02    36.6652  -1.0000    79.2709
 28      0.0000     0.0000E+00    0.0000E+00    5.000000E+09  0.02000  2.596E-05    0   0.5353   age161_m62            0.0000     5.1120E+02    40.2481  -1.0000    71.8244
 29      0.0000     0.0000E+00    0.0000E+00    1.100000E+10  0.02000  1.169E-05    0   0.5103   age185_m62            0.0000     6.0282E+02    43.5539  -1.0000    65.1899
 30      1.0063     5.3106E+00    5.2966E+00    1.300000E+10  0.02000  9.691E-06    0   0.5047   age193_m62            0.0000     6.1539E+02    43.9501  -1.0000    64.4511
 31      0.0000     0.0000E+00    0.0000E+00    1.000000E+06  0.05000  2.651E-02    0   0.9998   age020_m72            0.0000     9.0579E+00     5.1719   0.5883   108.4102
 32      0.0000     0.0000E+00    0.0000E+00    3.160000E+06  0.05000  4.817E-02    0   0.9577   age045_m72            0.0000     2.4052E+01     8.5600   0.2278   114.0344
 33      0.0000     0.0000E+00    0.0000E+00    5.010000E+06  0.05000  3.101E-02    0   0.9147   age055_m72            0.0000     2.4477E+01     8.6078  -0.0540   116.1738
 34      0.0000     0.0000E+00    0.0000E+00    1.000000E+07  0.05000  8.954E-03    0   0.8524   age070_m72            0.0000     2.2683E+01     8.3590   0.1100   115.1650
 35      0.0000     0.0000E+00    0.0000E+00    2.512000E+07  0.05000  4.207E-03    0   0.7902   age090_m72            0.0000     4.3265E+01    11.7400  -0.3450   120.3085
 36      0.0000     0.0000E+00    0.0000E+00    4.000000E+07  0.05000  3.198E-03    0   0.7618   age104_m72            0.0000     7.3411E+01    15.1693  -0.8084   125.4737
 37      0.0000     0.0000E+00    0.0000E+00    1.015200E+08  0.05000  1.716E-03    0   0.7092   age116_m72            0.0000     1.2612E+02    19.3989  -1.0000   127.8115
 38      0.0000     0.0000E+00    0.0000E+00    2.861200E+08  0.05000  7.047E-04    0   0.6618   age125_m72            0.0000     2.1509E+02    21.8091  -1.0000   118.8719
 39      0.0000     0.0000E+00    0.0000E+00    6.405400E+08  0.05000  2.633E-04    0   0.6253   age132_m72            0.0000     2.9523E+02    28.2175  -1.0000   102.7242
 40      0.0000     0.0000E+00    0.0000E+00    9.047900E+08  0.05000  1.484E-04    0   0.6088   age135_m72            0.0000     3.6628E+02    33.2176  -1.0000    88.1726
 41      0.0000     0.0000E+00    0.0000E+00    1.434000E+09  0.05000  7.827E-05    0   0.5847   age139_m72            0.0000     4.5635E+02    37.8392  -1.0000    77.0034
 42      0.0000     0.0000E+00    0.0000E+00    2.500000E+09  0.05000  3.759E-05    0   0.5583   age150_m72            0.0000     5.3681E+02    41.2275  -1.0000    69.8206
 43      0.0000     0.0000E+00    0.0000E+00    5.000000E+09  0.05000  1.548E-05    0   0.5320   age161_m72            0.0000     6.2443E+02    44.3048  -1.0000    62.1801
 44      4.6836     3.6669E+01    3.6739E+01    1.100000E+10  0.05000  6.532E-06    0   0.5070   age185_m72            0.0000     7.1405E+02    47.0325  -1.0000    55.0304
 45      5.9858     5.7585E+01    5.7103E+01    1.300000E+10  0.05000  5.316E-06    0   0.5018   age193_m72            0.0000     7.4283E+02    47.8161  -1.0000    52.9462


## Synthesis Results - Average & Chains ##

# j      x_j: min, <> & last-chain-values for 1 ...  7 chains
  1     94.8918     93.8232     94.4400     94.6715     94.3674     94.2712     94.6187     94.3948     94.6498
  2      0.0000      0.0072      0.0000      0.0000      0.0000      0.0000      0.0095      0.0000      0.0000
  3      0.0000      0.0126      0.0000      0.0000      0.0000      0.0000      0.0000      0.0000      0.0000
  4      0.0000      0.0135      0.0000      0.0000      0.0000      0.0000      0.0000      0.0000      0.0000
  5      0.0000      0.0086      0.0000      0.0000      0.0256      0.0000      0.0000      0.0000      0.0000
  6      0.0000      0.0062      0.0000      0.0000      0.0000      0.0000      0.0000      0.0000      0.0000
  7      0.0000      0.0013      0.0000      0.0000      0.0000      0.0000      0.0000      0.0000      0.0000
  8      0.0000      0.0003      0.0000      0.0000      0.0000      0.0000      0.0000      0.0000      0.0000
  9      0.0000      0.0013      0.0000      0.0000      0.0000      0.0000      0.0000      0.0000      0.0000
 10      0.0000      0.0014      0.0000      0.0000      0.0000      0.0000      0.0000      0.0000      0.0000
 11      0.0000      0.0024      0.0000      0.0000      0.0000      0.0000      0.0000      0.0000      0.0000
 12      0.0000      0.0034      0.0000      0.0000      0.0000      0.0000      0.0000      0.0000      0.0000
 13      0.0000      0.0063      0.0000      0.0000      0.0000      0.0000      0.0000      0.0000      0.0000
 14      0.0000      0.0205      0.0000      0.0048      0.0000      0.0000      0.0000      0.0000      0.0000
 15      0.0000      0.0078      0.0000      0.0000      0.0000      0.0000      0.0000      0.0000      0.0000
 16      0.0000      0.2330      0.1122      0.0000      0.0000      0.0000      0.0000      0.0000      0.0000
 17      0.0000      0.1311      0.0000      0.0000      0.0000      0.0741      0.0000      0.0000      0.0000
 18      0.0000      0.0068      0.0000      0.0000      0.0000      0.0000      0.0000      0.0000      0.0000
 19      0.0000      0.0263      0.0000      0.0000      0.0000      0.0000      0.0000      0.0000      0.0045
 20      0.0000      0.0108      0.0000      0.0000      0.0000      0.0003      0.0000      0.0060      0.0195
 21      0.0000      0.0055      0.0000      0.0053      0.0000      0.0000      0.0000      0.0000      0.0000
 22      0.0000      0.0013      0.0000      0.0000      0.0000      0.0000      0.0000      0.0000      0.0000
 23      0.0000      0.0024      0.0000      0.0000      0.0000      0.0000      0.0000      0.0000      0.0000
 24      0.0000      0.0005      0.0000      0.0000      0.0000      0.0000      0.0000      0.0000      0.0000
 25      0.0000      0.0065      0.0000      0.0000      0.0000      0.0000      0.0000      0.0000      0.0000
 26      0.0000      0.0042      0.0000      0.0000      0.0000      0.0000      0.0000      0.0000      0.0000
 27      0.0000      0.0110      0.0000      0.0000      0.0000      0.0000      0.0000      0.0000      0.0735
 28      0.0000      0.0311      0.0000      0.0000      0.0000      0.0000      0.0055      0.0000      0.0000
 29      0.0000      0.6578      0.3007      0.8839      0.5445      0.5415      0.0000      0.6758      0.5283
 30      1.0063      2.6266      2.8501      2.2532      2.6391      2.5966      2.7488      2.6183      2.6007
 31      0.0000      0.1880      0.1383      0.0000      0.1684      0.0000      0.0000      0.2380      0.0000
 32      0.0000      0.0442      0.0000      0.0162      0.0000      0.0000      0.0000      0.0108      0.0000
 33      0.0000      0.0219      0.0000      0.0000      0.0000      0.0890      0.0000      0.0000      0.0068
 34      0.0000      0.0217      0.0000      0.0000      0.0000      0.0000      0.0000      0.0000      0.0000
 35      0.0000      0.0065      0.0000      0.0000      0.0000      0.0000      0.0000      0.0000      0.0000
 36      0.0000      0.0023      0.0000      0.0000      0.0000      0.0000      0.0000      0.0000      0.0000
 37      0.0000      0.0012      0.0000      0.0000      0.0000      0.0000      0.0000      0.0000      0.0000
 38      0.0000      0.0021      0.0000      0.0000      0.0000      0.0000      0.0000      0.0000      0.0000
 39      0.0000      0.0017      0.0000      0.0000      0.0000      0.0000      0.0000      0.0000      0.0000
 40      0.0000      0.0052      0.0000      0.0000      0.0000      0.0000      0.0000      0.0000      0.0000
 41      0.0000      0.0052      0.0000      0.0000      0.0000      0.0000      0.0000      0.0000      0.0000
 42      0.0000      0.0145      0.0000      0.0052      0.0000      0.0000      0.0000      0.0000      0.0000
 43      0.0000      0.4937      0.0000      0.5191      0.0624      0.5622      0.6341      0.4594      0.5029
 44      4.6836      3.9118      3.9210      3.9256      4.0617      4.3223      4.2579      3.8965      3.8520
 45      5.9858      4.4456      5.0559      4.5971      4.8869      4.3720      4.5198      4.5288      4.5719

# j      m_j: min, <> & last-chain-values for 1 ...  7 chains
  1  8.6086E-01  9.1941E-01  8.9084E-01  9.2264E-01  8.9321E-01  9.0522E-01  9.1262E-01  9.2097E-01  9.2798E-01
  2  0.0000E+00  1.9254E-05  0.0000E+00  0.0000E+00  0.0000E+00  0.0000E+00  2.5053E-05  0.0000E+00  0.0000E+00
  3  0.0000E+00  5.1619E-05  0.0000E+00  0.0000E+00  0.0000E+00  0.0000E+00  0.0000E+00  0.0000E+00  0.0000E+00
  4  0.0000E+00  1.0306E-04  0.0000E+00  0.0000E+00  0.0000E+00  0.0000E+00  0.0000E+00  0.0000E+00  0.0000E+00
  5  0.0000E+00  1.5170E-04  0.0000E+00  0.0000E+00  4.3525E-04  0.0000E+00  0.0000E+00  0.0000E+00  0.0000E+00
  6  0.0000E+00  1.5178E-04  0.0000E+00  0.0000E+00  0.0000E+00  0.0000E+00  0.0000E+00  0.0000E+00  0.0000E+00
  7  0.0000E+00  4.4944E-05  0.0000E+00  0.0000E+00  0.0000E+00  0.0000E+00  0.0000E+00  0.0000E+00  0.0000E+00
  8  0.0000E+00  2.3295E-05  0.0000E+00  0.0000E+00  0.0000E+00  0.0000E+00  0.0000E+00  0.0000E+00  0.0000E+00
  9  0.0000E+00  1.6920E-04  0.0000E+00  0.0000E+00  0.0000E+00  0.0000E+00  0.0000E+00  0.0000E+00  0.0000E+00
 10  0.0000E+00  2.6249E-04  0.0000E+00  0.0000E+00  0.0000E+00  0.0000E+00  0.0000E+00  0.0000E+00  0.0000E+00
 11  0.0000E+00  7.9081E-04  0.0000E+00  0.0000E+00  0.0000E+00  0.0000E+00  0.0000E+00  0.0000E+00  0.0000E+00
 12  0.0000E+00  2.0752E-03  0.0000E+00  0.0000E+00  0.0000E+00  0.0000E+00  0.0000E+00  0.0000E+00  0.0000E+00
 13  0.0000E+00  7.6238E-03  0.0000E+00  0.0000E+00  0.0000E+00  0.0000E+00  0.0000E+00  0.0000E+00  0.0000E+00
 14  0.0000E+00  5.0567E-02  0.0000E+00  1.1766E-02  0.0000E+00  0.0000E+00  0.0000E+00  0.0000E+00  0.0000E+00
 15  0.0000E+00  2.2195E-02  0.0000E+00  0.0000E+00  0.0000E+00  0.0000E+00  0.0000E+00  0.0000E+00  0.0000E+00
 16  0.0000E+00  1.2787E-03  5.9285E-04  0.0000E+00  0.0000E+00  0.0000E+00  0.0000E+00  0.0000E+00  0.0000E+00
 17  0.0000E+00  3.7396E-04  0.0000E+00  0.0000E+00  0.0000E+00  2.0704E-04  0.0000E+00  0.0000E+00  0.0000E+00
 18  0.0000E+00  2.1407E-05  0.0000E+00  0.0000E+00  0.0000E+00  0.0000E+00  0.0000E+00  0.0000E+00  0.0000E+00
 19  0.0000E+00  2.4879E-04  0.0000E+00  0.0000E+00  0.0000E+00  0.0000E+00  0.0000E+00  0.0000E+00  4.2344E-05
 20  0.0000E+00  2.2718E-04  0.0000E+00  0.0000E+00  0.0000E+00  6.9488E-06  0.0000E+00  1.2533E-04  4.0917E-04
 21  0.0000E+00  1.3759E-04  0.0000E+00  1.3372E-04  0.0000E+00  0.0000E+00  0.0000E+00  0.0000E+00  0.0000E+00
 22  0.0000E+00  5.4839E-05  0.0000E+00  0.0000E+00  0.0000E+00  0.0000E+00  0.0000E+00  0.0000E+00  0.0000E+00
 23  0.0000E+00  1.9686E-04  0.0000E+00  0.0000E+00  0.0000E+00  0.0000E+00  0.0000E+00  0.0000E+00  0.0000E+00
 24  0.0000E+00  9.4488E-05  0.0000E+00  0.0000E+00  0.0000E+00  0.0000E+00  0.0000E+00  0.0000E+00  0.0000E+00
 25  0.0000E+00  1.8827E-03  0.0000E+00  0.0000E+00  0.0000E+00  0.0000E+00  0.0000E+00  0.0000E+00  0.0000E+00
 26  0.0000E+00  2.3137E-03  0.0000E+00  0.0000E+00  0.0000E+00  0.0000E+00  0.0000E+00  0.0000E+00  0.0000E+00
 27  0.0000E+00  1.2218E-02  0.0000E+00  0.0000E+00  0.0000E+00  0.0000E+00  0.0000E+00  0.0000E+00  8.1836E-02
 28  0.0000E+00  6.9970E-02  0.0000E+00  0.0000E+00  0.0000E+00  0.0000E+00  1.2129E-02  0.0000E+00  0.0000E+00
 29  0.0000E+00  3.1347E+00  1.3794E+00  4.1893E+00  2.5063E+00  2.5286E+00  0.0000E+00  3.2066E+00  2.5187E+00
 30  5.2966E+00  1.4933E+01  1.5598E+01  1.2740E+01  1.4492E+01  1.4466E+01  1.5382E+01  1.4821E+01  1.4793E+01
 31  0.0000E+00  7.7404E-04  5.4798E-04  0.0000E+00  6.6953E-04  0.0000E+00  0.0000E+00  9.7578E-04  0.0000E+00
 32  0.0000E+00  9.5847E-05  0.0000E+00  3.5034E-05  0.0000E+00  0.0000E+00  0.0000E+00  2.3346E-05  0.0000E+00
 33  0.0000E+00  7.0364E-05  0.0000E+00  0.0000E+00  0.0000E+00  2.8072E-04  0.0000E+00  0.0000E+00  2.1917E-05
 34  0.0000E+00  2.2561E-04  0.0000E+00  0.0000E+00  0.0000E+00  0.0000E+00  0.0000E+00  0.0000E+00  0.0000E+00
 35  0.0000E+00  1.3411E-04  0.0000E+00  0.0000E+00  0.0000E+00  0.0000E+00  0.0000E+00  0.0000E+00  0.0000E+00
 36  0.0000E+00  6.0625E-05  0.0000E+00  0.0000E+00  0.0000E+00  0.0000E+00  0.0000E+00  0.0000E+00  0.0000E+00
 37  0.0000E+00  5.5385E-05  0.0000E+00  0.0000E+00  0.0000E+00  0.0000E+00  0.0000E+00  0.0000E+00  0.0000E+00
 38  0.0000E+00  2.2019E-04  0.0000E+00  0.0000E+00  0.0000E+00  0.0000E+00  0.0000E+00  0.0000E+00  0.0000E+00
 39  0.0000E+00  4.5102E-04  0.0000E+00  0.0000E+00  0.0000E+00  0.0000E+00  0.0000E+00  0.0000E+00  0.0000E+00
 40  0.0000E+00  2.3203E-03  0.0000E+00  0.0000E+00  0.0000E+00  0.0000E+00  0.0000E+00  0.0000E+00  0.0000E+00
 41  0.0000E+00  4.2106E-03  0.0000E+00  0.0000E+00  0.0000E+00  0.0000E+00  0.0000E+00  0.0000E+00  0.0000E+00
 42  0.0000E+00  2.3452E-02  0.0000E+00  8.3652E-03  0.0000E+00  0.0000E+00  0.0000E+00  0.0000E+00  0.0000E+00
 43  0.0000E+00  1.8522E+00  0.0000E+00  1.9368E+00  2.2614E-01  2.0669E+00  2.3414E+00  1.7159E+00  1.8878E+00
 44  3.6739E+01  3.3146E+01  3.1981E+01  3.3080E+01  3.3242E+01  3.5887E+01  3.5510E+01  3.2871E+01  3.2655E+01
 45  5.7103E+01  4.5810E+01  5.0150E+01  4.7111E+01  4.8640E+01  4.4146E+01  4.5842E+01  4.6463E+01  4.7135E+01

# AV, chi2 & Mass for <> & i_chain = 1 ...  7 solutions
AV      -0.2482     -0.2517     -0.2541     -0.2522     -0.2557     -0.2645     -0.2524     -0.2487     -0.2452
chi2 2.0012E+00  2.0349E+00  2.0184E+00  2.0272E+00  2.0179E+00  2.0258E+00  2.0223E+00  2.0256E+00  2.0260E+00
Mass 5.4211E-12  4.9954E-12  5.1725E-12  5.0197E-12  5.1438E-12  5.0110E-12  5.0705E-12  5.0372E-12  5.0363E-12
 238.07                                  [v0_min (km/s) before EX0s...]
 358.08                                  [vd_min (km/s) before EX0s...]


## Synthetic spectrum (Best Model) ##l_obs f_obs f_syn wei
 2201    [Nl_obs]
 3100.00    2.20020   2.38110    9.623
 3101.00    2.21931   2.37637    9.712
 3102.00    2.14539   2.37110   10.002
 3103.00    2.10289   2.36717   -1.000
 3104.00    2.10568   2.36210   -1.000
 3105.00    2.11972   2.35737   10.347
 3106.00    2.10526   2.35440   -1.000
 3107.00    2.08678   2.35135   -1.000
 3108.00    2.16439   2.34894   10.535
 3109.00    2.17388   2.34759   10.604
 3110.00    2.10379   2.34642   -1.000
 3111.00    2.08598   2.34554   -1.000
 3112.00    2.06912   2.34491   -1.000
 3113.00    2.04733   2.34423   -1.000
 3114.00    2.05164   2.34356   -1.000
 3115.00    2.02452   2.34245   -1.000
 3116.00    1.99510   2.34083   -1.000
 3117.00    2.02661   2.33917   -1.000
 3118.00    1.97326   2.33587   -1.000
 3119.00    1.94477   2.33150   -1.000
 3120.00    1.97868   2.32767   -1.000
 3121.00    2.01562   2.32126   -1.000
 3122.00    2.04731   2.31413   -1.000
 3123.00    2.05794   2.30893   -1.000
 3124.00    2.12405   2.30197   11.822
 3125.00    2.14781   2.29554   11.834
 3126.00    2.07961   2.29166   -1.000
 3127.00    2.10891   2.28746   12.059
 3128.00    2.12335   2.28421   12.064
 3129.00    2.14128   2.28253   12.085
 3130.00    2.09408   2.28097   12.282
 3131.00    2.13293   2.27989   12.277
 3132.00    2.15314   2.27921   12.304
 3133.00    2.11258   2.27852   12.502
 3134.00    2.09409   2.27789   12.659
 3135.00    2.07600   2.27696   -1.000
 3136.00    2.06818   2.27562   -1.000
 3137.00    2.05636   2.27428   -1.000
 3138.00    2.08205   2.27169   -1.000
 3139.00    2.05177   2.26828   -1.000
 3140.00    2.04320   2.26531   -1.000
 3141.00    2.04910   2.26033   -1.000
 3142.00    2.04148   2.25484   -1.000
 3143.00    2.08196   2.25087   -1.000
 3144.00    2.10838   2.24540   13.582
 3145.00    2.11623   2.24042   13.674
 3146.00    2.11202   2.23746   13.806
 3147.00    2.14914   2.23408   13.801
 3148.00    2.16927   2.23149   13.810
 3149.00    2.13056   2.23017   14.087
 3150.00    2.09879   2.22886   14.298
 3151.00    2.10513   2.22793   14.332
 3152.00    2.13513   2.22735   14.267
 3153.00    2.11989   2.22669   14.425
 3154.00    2.09350   2.22608   14.646
 3155.00    2.05881   2.22518   -1.000
 3156.00    2.03460   2.22386   -1.000
 3157.00    1.96265   2.22250   -1.000
 3158.00    1.97256   2.21996   -1.000
 3159.00    1.98998   2.21659   -1.000
 3160.00    2.00903   2.21366   -1.000
 3161.00    2.05083   2.20872   -1.000
 3162.00    2.06251   2.20330   -1.000
 3163.00    2.06393   2.19938   15.434
 3164.00    2.05929   2.19395   15.518
 3165.00    2.04142   2.18907   15.647
 3166.00    2.06727   2.18608   15.589
 3167.00    2.10850   2.18269   15.474
 3168.00    2.11351   2.18018   15.516
 3169.00    2.13040   2.17881   15.545
 3170.00    2.10824   2.17748   15.657
 3171.00    2.09889   2.17657   15.770
 3172.00    2.11027   2.17595   15.815
 3173.00    2.08172   2.17525   15.932
 3174.00    2.04646   2.17458   16.131
 3175.00    2.03591   2.17354   16.228
 3176.00    2.05121   2.17196   16.177
 3177.00    2.07098   2.17033   16.136
 3178.00    2.05232   2.16725   16.250
 3179.00    2.02726   2.16311   -1.000
 3180.00    2.01632   2.15951   -1.000
 3181.00    2.01785   2.15342   -1.000
 3182.00    2.03001   2.14675   16.620
 3183.00    2.03548   2.14187   16.661
 3184.00    2.07065   2.13516   16.594
 3185.00    2.14683   2.12922   16.362
 3186.00    2.42257   2.12544   -1.000
 3187.00    2.69018   2.12125   -1.000
 3188.00    2.77556   2.11824   -1.000
 3189.00    2.72153   2.11651   -1.000
 3190.00    2.43819   2.11490   -1.000
 3191.00    2.16538   2.11388   16.799
 3192.00    2.07070   2.11319   17.261
 3193.00    2.04349   2.11246   17.484
 3194.00    2.00739   2.11180   17.747
 3195.00    1.99494   2.11083   17.937
 3196.00    1.93080   2.10936   -1.000
 3197.00    1.88325   2.10783   -1.000
 3198.00    1.86161   2.10502   -1.000
 3199.00    1.85323   2.10123   -1.000
 3200.00    1.81267   2.09791   -1.000
 3201.00    1.79041   2.09235   -1.000
 3202.00    1.76226   2.08629   -1.000
 3203.00    1.72347   2.08178   -1.000
 3204.00    1.76102   2.07564   -1.000
 3205.00    1.80646   2.07029   -1.000
 3206.00    1.83805   2.06671   -1.000
 3207.00    1.87795   2.06284   -1.000
 3208.00    1.90440   2.06014   -1.000
 3209.00    1.93966   2.05846   19.195
 3210.00    2.00897   2.05696   18.842
 3211.00    2.05912   2.05604   18.617
 3212.00    2.05222   2.05539   18.591
 3213.00    2.07798   2.05476   18.467
 3214.00    2.10703   2.05423   18.328
 3215.00    2.12387   2.05352   18.182
 3216.00    2.16008   2.05249   17.991
 3217.00    2.15579   2.05141   17.958
 3218.00    2.16856   2.04955   17.922
 3219.00    2.16952   2.04706   17.896
 3220.00    2.15048   2.04487   17.996
 3221.00    2.07893   2.04127   18.262
 3222.00    2.06786   2.03736   18.348
 3223.00    2.04775   2.03439   18.459
 3224.00    2.02282   2.03042   18.596
 3225.00    2.05147   2.02699   18.478
 3226.00    2.05100   2.02457   18.637
 3227.00    2.03310   2.02202   18.833
 3228.00    1.98379   2.02026   19.139
 3229.00    1.97892   2.01905   19.285
 3230.00    1.98401   2.01799   19.335
 3231.00    1.97868   2.01734   19.464
 3232.00    1.96455   2.01681   19.662
 3233.00    1.96518   2.01629   19.725
 3234.00    1.99464   2.01582   19.657
 3235.00    2.00311   2.01521   19.687
 3236.00    1.99674   2.01431   19.762
 3237.00    1.99603   2.01335   19.780
 3238.00    1.98881   2.01176   19.866
 3239.00    1.99450   2.00962   19.869
 3240.00    1.99892   2.00772   19.875
 3241.00    1.98788   2.00463   19.865
 3242.00    2.00082   2.00131   19.815
 3243.00    1.97210   1.99874   19.960
 3244.00    1.98372   1.99533   19.945
 3245.00    2.00457   1.99244   19.835
 3246.00    1.98439   1.99030   19.877
 3247.00    2.00664   1.98808   19.790
 3248.00    2.02114   1.98659   19.716
 3249.00    2.02145   1.98548   19.707
 3250.00    1.99113   1.98454   19.905
 3251.00    1.95168   1.98396   20.099
 3252.00    1.93981   1.98345   20.235
 3253.00    1.93060   1.98293   20.292
 3254.00    1.95000   1.98242   20.264
 3255.00    1.94853   1.98173   20.335
 3256.00    1.94749   1.98066   20.405
 3257.00    1.93975   1.97950   20.569
 3258.00    1.93722   1.97756   20.646
 3259.00    1.94880   1.97492   20.687
 3260.00    1.94936   1.97257   20.809
 3261.00    1.98036   1.96873   20.771
 3262.00    1.98567   1.96461   20.875
 3263.00    1.95975   1.96138   21.093
 3264.00    1.94905   1.95713   21.244
 3265.00    1.94236   1.95358   21.354
 3266.00    1.95655   1.95085   21.299
 3267.00    1.99679   1.94809   21.067
 3268.00    2.01561   1.94630   20.970
 3269.00    2.00849   1.94490   21.125
 3270.00    1.88466   1.94376   22.604
 3271.00    1.81780   1.94311   -1.000
 3272.00    1.91324   1.94253   21.936
 3273.00    1.99552   1.94197   21.389
 3274.00    1.98289   1.94145   21.492
 3275.00    1.97292   1.94077   21.624
 3276.00    1.98622   1.93970   21.636
 3277.00    2.01162   1.93853   21.567
 3278.00    2.01685   1.93661   21.525
 3279.00    2.00479   1.93397   21.720
 3280.00    1.98702   1.93162   21.887
 3281.00    1.95073   1.92778   22.071
 3282.00    1.92774   1.92368   22.148
 3283.00    1.95355   1.92043   22.126
 3284.00    1.95457   1.91618   22.262
 3285.00    1.94841   1.91269   22.368
 3286.00    1.99201   1.90988   22.285
 3287.00    1.98718   1.90710   22.461
 3288.00    2.00274   1.90536   22.452
 3289.00    1.98658   1.90390   22.586
 3290.00    1.96158   1.90275   22.743
 3291.00    1.98767   1.90211   22.718
 3292.00    1.97893   1.90151   22.850
 3293.00    1.99315   1.90092   22.798
 3294.00    1.98724   1.90035   22.905
 3295.00    1.99752   1.89961   22.904
 3296.00    2.00489   1.89839   22.893
 3297.00    1.99358   1.89704   22.976
 3298.00    1.96760   1.89485   23.132
 3299.00    1.93297   1.89180   23.454
 3300.00    1.93071   1.88907   23.463
 3301.00    1.95520   1.88462   23.404
 3302.00    1.96292   1.87989   23.359
 3303.00    1.95837   1.87607   23.407
 3304.00    1.92925   1.87113   23.620
 3305.00    1.92482   1.86715   23.638
 3306.00    1.92416   1.86379   23.542
 3307.00    1.93596   1.86051   23.524
 3308.00    1.95264   1.85853   23.392
 3309.00    1.95567   1.85667   23.398
 3310.00    1.94966   1.85518   23.481
 3311.00    1.93569   1.85427   23.661
 3312.00    1.92432   1.85312   23.738
 3313.00    1.92739   1.85210   23.764
 3314.00    1.91561   1.85077   23.921
 3315.00    1.91554   1.84899   23.922
 3316.00    1.92564   1.84748   23.895
 3317.00    1.96176   1.84498   23.734
 3318.00    1.98004   1.84238   23.734
 3319.00    1.95593   1.84028   23.917
 3320.00    1.95863   1.83729   23.936
 3321.00    1.96834   1.83516   23.955
 3322.00    1.96217   1.83266   23.980
 3323.00    1.97870   1.82992   23.947
 3324.00    1.94015   1.82827   24.210
 3325.00    1.92359   1.82501   24.376
 3326.00    1.93185   1.82235   24.348
 3327.00    1.93888   1.81925   24.303
 3328.00    1.94326   1.81537   24.381
 3329.00    1.94487   1.81171   24.350
 3330.00    1.92313   1.80728   24.516
 3331.00    1.91686   1.80286   24.557
 3332.00    1.94570   1.79806   24.378
 3333.00    1.95086   1.79298   24.428
 3334.00    1.97097   1.78744   -1.000
 3335.00    1.95800   1.78187   -1.000
 3336.00    1.94745   1.77636   -1.000
 3337.00    1.92883   1.77054   24.627
 3338.00    1.92316   1.76566   24.659
 3339.00    1.90835   1.76145   24.720
 3340.00    1.90622   1.75812   24.710
 3341.00    1.90086   1.75638   24.839
 3342.00    1.90500   1.75618   -1.000
 3343.00    1.93225   1.75683   -1.000
 3344.00    1.94726   1.75964   -1.000
 3345.00    1.94332   1.76236   -1.000
 3346.00    1.94372   1.76458   -1.000
 3347.00    1.92005   1.76737   -1.000
 3348.00    1.91508   1.76730   25.213
 3349.00    1.92266   1.76615   25.223
 3350.00    1.91577   1.76397   25.380
 3351.00    1.89678   1.75739   25.561
 3352.00    1.92976   1.75259   -1.000
 3353.00    1.95469   1.74599   -1.000
 3354.00    1.97576   1.73881   -1.000
 3355.00    1.99783   1.73370   -1.000
 3356.00    1.98896   1.72751   -1.000
 3357.00    1.97494   1.72393   -1.000
 3358.00    1.92892   1.72116   -1.000
 3359.00    1.91937   1.71844   -1.000
 3360.00    1.91535   1.71678   -1.000
 3361.00    1.90991   1.71516   -1.000
 3362.00    1.89982   1.71339   -1.000
 3363.00    1.88775   1.71151   -1.000
 3364.00    1.88285   1.70867   -1.000
 3365.00    1.90001   1.70549   -1.000
 3366.00    1.91327   1.70180   -1.000
 3367.00    1.90473   1.69738   -1.000
 3368.00    1.91052   1.69335   -1.000
 3369.00    1.91900   1.68905   -1.000
 3370.00    1.91858   1.68504   -1.000
 3371.00    1.91572   1.68247   -1.000
 3372.00    1.90212   1.67976   -1.000
 3373.00    1.85756   1.67793   -1.000
 3374.00    1.86575   1.67747   -1.000
 3375.00    1.88990   1.67656   -1.000
 3376.00    1.87674   1.67761   -1.000
 3377.00    1.86474   1.67832   -1.000
 3378.00    1.85614   1.67861   -1.000
 3379.00    1.85479   1.68069   -1.000
 3380.00    1.85935   1.68166   -1.000
 3381.00    1.85694   1.68421   -1.000
 3382.00    1.82863   1.68650   -1.000
 3383.00    1.81900   1.68862   -1.000
 3384.00    1.81316   1.69193   27.747
 3385.00    1.81057   1.69388   27.769
 3386.00    1.81541   1.69713   27.716
 3387.00    1.84582   1.69916   -1.000
 3388.00    1.86418   1.70082   -1.000
 3389.00    1.86074   1.70257   -1.000
 3390.00    1.86839   1.70260   -1.000
 3391.00    1.88969   1.70337   -1.000
 3392.00    1.90779   1.70301   -1.000
 3393.00    1.90154   1.70245   -1.000
 3394.00    1.86746   1.70145   -1.000
 3395.00    1.86550   1.69969   -1.000
 3396.00    1.87769   1.69753   -1.000
 3397.00    1.90270   1.69396   -1.000
 3398.00    1.91904   1.68958   -1.000
 3399.00    1.91539   1.68464   -1.000
 3400.00    1.91573   1.67807   -1.000
 3401.00    1.90853   1.67175   -1.000
 3402.00    1.90178   1.66534   -1.000
 3403.00    1.89112   1.65841   -1.000
 3404.00    1.87965   1.65290   -1.000
 3405.00    1.88730   1.64737   -1.000
 3406.00    1.90373   1.64328   -1.000
 3407.00    1.91233   1.63990   -1.000
 3408.00    1.88862   1.63733   -1.000
 3409.00    1.86675   1.63515   -1.000
 3410.00    1.86106   1.63375   -1.000
 3411.00    1.86831   1.63353   -1.000
 3412.00    1.86464   1.63207   -1.000
 3413.00    1.86666   1.63267   -1.000
 3414.00    1.88196   1.63292   -1.000
 3415.00    1.87747   1.63363   -1.000
 3416.00    1.89130   1.63562   -1.000
 3417.00    1.89644   1.63631   -1.000
 3418.00    1.90014   1.63856   -1.000
 3419.00    1.89575   1.64038   -1.000
 3420.00    1.91477   1.64213   -1.000
 3421.00    1.90103   1.64388   -1.000
 3422.00    1.89762   1.64495   -1.000
 3423.00    1.88522   1.64577   -1.000
 3424.00    1.87002   1.64631   -1.000
 3425.00    1.86140   1.64649   -1.000
 3426.00    1.87120   1.64610   -1.000
 3427.00    1.86335   1.64604   -1.000
 3428.00    1.86750   1.64511   -1.000
 3429.00    1.83452   1.64466   -1.000
 3430.00    1.81338   1.64410   -1.000
 3431.00    1.83279   1.64253   -1.000
 3432.00    1.83493   1.64186   -1.000
 3433.00    1.83243   1.64008   -1.000
 3434.00    1.84000   1.63850   -1.000
 3435.00    1.83840   1.63676   -1.000
 3436.00    1.83355   1.63364   -1.000
 3437.00    1.85234   1.63093   -1.000
 3438.00    1.85648   1.62704   -1.000
 3439.00    1.84933   1.62286   -1.000
 3440.00    1.83894   1.61862   -1.000
 3441.00    1.82512   1.61335   -1.000
 3442.00    1.81072   1.60911   -1.000
 3443.00    1.82419   1.60425   -1.000
 3444.00    1.81814   1.60063   -1.000
 3445.00    1.84117   1.59790   -1.000
 3446.00    1.87532   1.59422   -1.000
 3447.00    1.87969   1.59295   -1.000
 3448.00    1.88655   1.59020   -1.000
 3449.00    1.87288   1.58870   -1.000
 3450.00    1.85740   1.58751   -1.000
 3451.00    1.84192   1.58346   -1.000
 3452.00    1.82090   1.58148   -1.000
 3453.00    1.83398   1.57736   -1.000
 3454.00    1.82861   1.57387   -1.000
 3455.00    1.82262   1.57104   -1.000
 3456.00    1.83632   1.56638   -1.000
 3457.00    1.80892   1.56362   -1.000
 3458.00    1.80877   1.56048   -1.000
 3459.00    1.80378   1.55855   -1.000
 3460.00    1.80929   1.55689   -1.000
 3461.00    1.81719   1.55623   -1.000
 3462.00    1.80456   1.55605   -1.000
 3463.00    1.81369   1.55604   -1.000
 3464.00    1.81324   1.55859   -1.000
 3465.00    1.81889   1.55823   -1.000
 3466.00    1.84053   1.56096   -1.000
 3467.00    1.82956   1.56164   -1.000
 3468.00    1.81702   1.56207   -1.000
 3469.00    1.82914   1.56375   -1.000
 3470.00    1.83771   1.56163   -1.000
 3471.00    1.84917   1.56159   -1.000
 3472.00    1.83915   1.55865   -1.000
 3473.00    1.82661   1.55575   -1.000
 3474.00    1.82605   1.55250   -1.000
 3475.00    1.82161   1.54741   -1.000
 3476.00    1.82009   1.54323   -1.000
 3477.00    1.81754   1.53771   -1.000
 3478.00    1.81076   1.53218   -1.000
 3479.00    1.82991   1.52738   -1.000
 3480.00    1.82136   1.52234   -1.000
 3481.00    1.82035   1.51878   -1.000
 3482.00    1.81197   1.51632   -1.000
 3483.00    1.80556   1.51444   -1.000
 3484.00    1.80875   1.51424   -1.000
 3485.00    1.82563   1.51486   -1.000
 3486.00    1.85973   1.51737   -1.000
 3487.00    1.85080   1.52030   -1.000
 3488.00    1.84595   1.52388   -1.000
 3489.00    1.83887   1.52758   -1.000
 3490.00    1.81616   1.53109   -1.000
 3491.00    1.80512   1.53460   -1.000
 3492.00    1.79789   1.53687   -1.000
 3493.00    1.79700   1.53929   -1.000
 3494.00    1.79886   1.54019   -1.000
 3495.00    1.78568   1.54092   -1.000
 3496.00    1.79040   1.54048   -1.000
 3497.00    1.80930   1.53891   -1.000
 3498.00    1.80243   1.53792   -1.000
 3499.00    1.78601   1.53540   -1.000
 3500.00    1.79937   1.53317    0.000
 3501.00    1.78679   1.52997    0.000
 3502.00    1.78138   1.52595    0.000
 3503.00    1.77735   1.52260    0.000
 3504.00    1.78052   1.51857    0.000
 3505.00    1.78703   1.51474    0.000
 3506.00    1.78893   1.51064    0.000
 3507.00    1.77831   1.50653    0.000
 3508.00    1.76805   1.50299    0.000
 3509.00    1.77280   1.49981    0.000
 3510.00    1.80231   1.49689    0.000
 3511.00    1.80864   1.49425    0.000
 3512.00    1.78599   1.49210    0.000
 3513.00    1.77972   1.49016    0.000
 3514.00    1.77743   1.48870    0.000
 3515.00    1.74965   1.48770    0.000
 3516.00    1.74255   1.48657    0.000
 3517.00    1.74735   1.48628    0.000
 3518.00    1.77362   1.48530    0.000
 3519.00    1.77316   1.48482    0.000
 3520.00    1.75510   1.48417    0.000
 3521.00    1.75383   1.48294    0.000
 3522.00    1.77963   1.48217    0.000
 3523.00    1.78087   1.48056    0.000
 3524.00    1.77420   1.47921    0.000
 3525.00    1.75574   1.47839    0.000
 3526.00    1.76647   1.47679    0.000
 3527.00    1.78872   1.47680    0.000
 3528.00    1.82294   1.47631    0.000
 3529.00    1.84779   1.47667    0.000
 3530.00    1.85085   1.47767    0.000
 3531.00    1.83282   1.47820    0.000
 3532.00    1.81861   1.47958    0.000
 3533.00    1.79819   1.48013    0.000
 3534.00    1.80011   1.48075    0.000
 3535.00    1.80774   1.48073    0.000
 3536.00    1.80956   1.48043    0.000
 3537.00    1.79721   1.47987    0.000
 3538.00    1.80504   1.47861    0.000
 3539.00    1.79411   1.47794    0.000
 3540.00    1.79161   1.47643    0.000
 3541.00    1.78582   1.47593    0.000
 3542.00    1.79264   1.47507    0.000
 3543.00    1.79078   1.47458    0.000
 3544.00    1.79636   1.47450    0.000
 3545.00    1.80263   1.47411    0.000
 3546.00    1.79599   1.47429    0.000
 3547.00    1.80054   1.47382    0.000
 3548.00    1.80950   1.47394    0.000
 3549.00    1.78557   1.47336    0.000
 3550.00    1.78345   1.47287    0.000
 3551.00    1.79404   1.47206    0.000
 3552.00    1.81244   1.47071    0.000
 3553.00    1.83786   1.46980    0.000
 3554.00    1.82609   1.46812    0.000
 3555.00    1.82637   1.46676    0.000
 3556.00    1.79078   1.46522    0.000
 3557.00    1.77140   1.46336    0.000
 3558.00    1.77494   1.46221    0.000
 3559.00    1.76070   1.46044    0.000
 3560.00    1.75704   1.45924    0.000
 3561.00    1.76593   1.45776    0.000
 3562.00    1.77564   1.45626    0.000
 3563.00    1.76248   1.45466    0.000
 3564.00    1.75526   1.45269    0.000
 3565.00    1.75931   1.45030    0.000
 3566.00    1.77223   1.44747    0.000
 3567.00    1.76334   1.44399    0.000
 3568.00    1.76474   1.43992    0.000
 3569.00    1.75995   1.43599    0.000
 3570.00    1.74957   1.43063    0.000
 3571.00    1.72977   1.42606    0.000
 3572.00    1.72598   1.42001    0.000
 3573.00    1.74957   1.41523    0.000
 3574.00    1.74947   1.40996    0.000
 3575.00    1.73226   1.40511    0.000
 3576.00    1.72632   1.40106    0.000
 3577.00    1.73755   1.39680    0.000
 3578.00    1.75084   1.39345    0.000
 3579.00    1.76297   1.38997    0.000
 3580.00    1.77440   1.38706    0.000
 3581.00    1.75546   1.38450    0.000
 3582.00    1.73547   1.38206    0.000
 3583.00    1.74478   1.37999    0.000
 3584.00    1.76711   1.37830    0.000
 3585.00    1.79323   1.37683    0.000
 3586.00    1.79576   1.37583    0.000
 3587.00    1.80123   1.37522    0.000
 3588.00    1.79259   1.37494    0.000
 3589.00    1.74732   1.37517    0.000
 3590.00    1.72882   1.37565    0.000
 3591.00    1.75152   1.37647    0.000
 3592.00    1.74684   1.37765    0.000
 3593.00    1.73705   1.37880    0.000
 3594.00    1.73335   1.38043    0.000
 3595.00    1.74599   1.38169    0.000
 3596.00    1.75003   1.38345    0.000
 3597.00    1.74513   1.38486    0.000
 3598.00    1.74079   1.38653    0.000
 3599.00    1.74374   1.38789    0.000
 3600.00    1.74644   1.38868    0.000
 3601.00    1.76700   1.38980    0.000
 3602.00    1.77655   1.38954    0.000
 3603.00    1.77581   1.38984    0.000
 3604.00    1.76565   1.38837    0.000
 3605.00    1.76387   1.38731    0.000
 3606.00    1.77309   1.38555    0.000
 3607.00    1.76274   1.38337    0.000
 3608.00    1.75380   1.38186    0.000
 3609.00    1.76616   1.37947    0.000
 3610.00    1.78244   1.37796    0.000
 3611.00    1.81401   1.37635    0.000
 3612.00    1.85675   1.37482    0.000
 3613.00    1.87062   1.37419    0.000
 3614.00    1.85783   1.37287    0.000
 3615.00    1.81953   1.37251    0.000
 3616.00    1.78361   1.37179    0.000
 3617.00    1.77273   1.37135    0.000
 3618.00    1.77348   1.37152    0.000
 3619.00    1.77017   1.37112    0.000
 3620.00    1.76779   1.37210    0.000
 3621.00    1.75279   1.37230    0.000
 3622.00    1.75179   1.37390    0.000
 3623.00    1.75432   1.37525    0.000
 3624.00    1.74632   1.37686    0.000
 3625.00    1.75299   1.37881    0.000
 3626.00    1.74186   1.37995    0.000
 3627.00    1.73886   1.38147    0.000
 3628.00    1.72826   1.38192    0.000
 3629.00    1.70626   1.38208    0.000
 3630.00    1.69699   1.38159    0.000
 3631.00    1.73277   1.38017    0.000
 3632.00    1.78041   1.37823    0.000
 3633.00    1.81200   1.37599    0.000
 3634.00    1.80266   1.37355    0.000
 3635.00    1.77442   1.37117    0.000
 3636.00    1.73397   1.36859    0.000
 3637.00    1.70842   1.36598    0.000
 3638.00    1.70349   1.36387    0.000
 3639.00    1.71876   1.36124    0.000
 3640.00    1.72161   1.35929    0.000
 3641.00    1.73569   1.35719    0.000
 3642.00    1.72311   1.35515    0.000
 3643.00    1.69429   1.35304    0.000
 3644.00    1.69760   1.35050    0.000
 3645.00    1.69581   1.34802    0.000
 3646.00    1.67680   1.34545    0.000
 3647.00    1.63959   1.34283    0.000
 3648.00    1.60312   1.34058    0.000
 3649.00    1.57485   1.33873    0.000
 3650.00    1.54548   1.33715    0.000
 3651.00    1.53385   1.33643    0.000
 3652.00    1.52358   1.33579    0.000
 3653.00    1.51848   1.33614    0.000
 3654.00    1.48289   1.33637    0.000
 3655.00    1.47413   1.33719    0.000
 3656.00    1.45614   1.33795    0.000
 3657.00    1.46127   1.33868    0.000
 3658.00    1.45385   1.33943    0.000
 3659.00    1.46446   1.33973    0.000
 3660.00    1.46437   1.33998    0.000
 3661.00    1.45299   1.33948    0.000
 3662.00    1.45854   1.33906    0.000
 3663.00    1.46625   1.33776    0.000
 3664.00    1.44796   1.33671    0.000
 3665.00    1.43400   1.33497    0.000
 3666.00    1.43308   1.33340    0.000
 3667.00    1.43784   1.33167    0.000
 3668.00    1.43018   1.32964    0.000
 3669.00    1.43525   1.32794    0.000
 3670.00    1.42341   1.32593    0.000
 3671.00    1.43396   1.32419    0.000
 3672.00    1.42750   1.32247    0.000
 3673.00    1.40839   1.32070    0.000
 3674.00    1.43005   1.31886    0.000
 3675.00    1.41448   1.31691    0.000
 3676.00    1.40470   1.31450    0.000
 3677.00    1.44394   1.31255    0.000
 3678.00    1.40632   1.30969    0.000
 3679.00    1.38498   1.30768    0.000
 3680.00    1.40707   1.30479    0.000
 3681.00    1.40183   1.30252    0.000
 3682.00    1.38546   1.30022    0.000
 3683.00    1.37417   1.29802    0.000
 3684.00    1.38110   1.29642    0.000
 3685.00    1.40914   1.29455    0.000
 3686.00    1.42491   1.29341    0.000
 3687.00    1.40818   1.29184    0.000
 3688.00    1.33932   1.29100    0.000
 3689.00    1.34900   1.28992    0.000
 3690.00    1.42179   1.28939    0.000
 3691.00    1.42708   1.28869    0.000
 3692.00    1.38242   1.28843    0.000
 3693.00    1.28817   1.28774    0.000
 3694.00    1.28561   1.28715    0.000
 3695.00    1.41511   1.28617    0.000
 3696.00    1.47234   1.28513    0.000
 3697.00    1.47369   1.28362    0.000
 3698.00    1.37105   1.28171    0.000
 3699.00    1.22626   1.27979    0.000
 3700.00    1.20737   1.27683    0.000
 3701.00    1.35788   1.27405    0.000
 3702.00    1.56254   1.26984    0.000
 3703.00    1.67662   1.26604    0.000
 3704.00    1.66710   1.26066    0.000
 3705.00    1.51935   1.25565    0.000
 3706.00    1.33296   1.25028    0.000
 3707.00    1.23369   1.24529    0.000
 3708.00    1.24099   1.24123    0.000
 3709.00    1.39969   1.23749    0.000
 3710.00    1.60224   1.23527    0.000
 3711.00    1.68371   1.23305    0.000
 3712.00    1.66134   1.23211    0.000
 3713.00    1.51915   1.23123    0.000
 3714.00    1.35198   1.23088    0.000
 3715.00    1.32736   1.23049    0.000
 3716.00    1.35825   1.22976    0.000
 3717.00    1.40038   1.22883    0.000
 3718.00    1.50535   1.22663    0.000
 3719.00    1.85713   1.22438    0.000
 3720.00    2.29729   1.22047    0.000
 3721.00    2.59983   1.21718    0.000
 3722.00    3.77222   1.21308    0.000
 3723.00   10.48409   1.20968    0.000
 3724.00   18.94763   1.20704    0.000
 3725.00   24.88322   1.20520    0.000
 3726.00   33.78671   1.20432    0.000
 3727.00   34.10054   1.20373    0.000
 3728.00   27.65168   1.20339    0.000
 3729.00   23.51287   1.20275    0.000
 3730.00   12.55778   1.20165    0.000
 3731.00    3.65033   1.20010    0.000
 3732.00    2.33267   1.19736    0.000
 3733.00    2.25959   1.19442    0.000
 3734.00    2.13415   1.19057    0.000
 3735.00    1.88919   1.18708    0.000
 3736.00    1.52600   1.18416    0.000
 3737.00    1.35575   1.18221    0.000
 3738.00    1.33377   1.18213    0.000
 3739.00    1.30168   1.18313    0.000
 3740.00    1.28271   1.18569   -1.000
 3741.00    1.27912   1.18838   -1.000
 3742.00    1.26957   1.19137   -1.000
 3743.00    1.24019   1.19317   46.544
 3744.00    1.22255   1.19387   46.826
 3745.00    1.22163   1.19285    0.000
 3746.00    1.22863   1.18999    0.000
 3747.00    1.45712   1.18592    0.000
 3748.00    1.83603   1.18049    0.000
 3749.00    1.98950   1.17475    0.000
 3750.00    1.92668   1.16877    0.000
 3751.00    1.64390   1.16357    0.000
 3752.00    1.26415   1.15968    0.000
 3753.00    1.15032   1.15733    0.000
 3754.00    1.14391   1.15723    0.000
 3755.00    1.13749   1.15807   49.343
 3756.00    1.15415   1.16050   49.169
 3757.00    1.15015   1.16300   49.177
 3758.00    1.14274   1.16615   49.367
 3759.00    1.13857   1.16858   49.521
 3760.00    1.14293   1.17058   49.504
 3761.00    1.14318   1.17191   49.585
 3762.00    1.15171   1.17218   49.499
 3763.00    1.14604   1.17207   49.662
 3764.00    1.13740   1.16999   49.898
 3765.00    1.12064   1.16818    0.000
 3766.00    1.12373   1.16421    0.000
 3767.00    1.26951   1.15992    0.000
 3768.00    1.73123   1.15457    0.000
 3769.00    2.06323   1.14908    0.000
 3770.00    2.13680   1.14392    0.000
 3771.00    1.91182   1.13933    0.000
 3772.00    1.40631   1.13639    0.000
 3773.00    1.12075   1.13461    0.000
 3774.00    1.08981   1.13551    0.000
 3775.00    1.10273   1.13823    0.000
 3776.00    1.11599   1.14292   51.055
 3777.00    1.14411   1.14873   50.488
 3778.00    1.15061   1.15551   50.420
 3779.00    1.14233   1.16233   50.574
 3780.00    1.14227   1.16923   50.605
 3781.00    1.15399   1.17524   50.413
 3782.00    1.15235   1.18037   50.549
 3783.00    1.16103   1.18439   50.422
 3784.00    1.17357   1.18692   50.320
 3785.00    1.17469   1.18822   50.336
 3786.00    1.15538   1.18787   -1.000
 3787.00    1.13706   1.18600   -1.000
 3788.00    1.14186   1.18288   -1.000
 3789.00    1.13315   1.17830   -1.000
 3790.00    1.12425   1.17235   -1.000
 3791.00    1.12833   1.16528   -1.000
 3792.00    1.11177   1.15712   -1.000
 3793.00    1.09531   1.14812    0.000
 3794.00    1.21961   1.13858    0.000
 3795.00    1.75715   1.12865    0.000
 3796.00    2.32540   1.11922    0.000
 3797.00    2.48844   1.10990    0.000
 3798.00    2.32420   1.10250    0.000
 3799.00    1.70890   1.09624    0.000
 3800.00    1.16951   1.09280    0.000
 3801.00    1.08579   1.09172    0.000
 3802.00    1.11162   1.09401    0.000
 3803.00    1.11648   1.09834   52.868
 3804.00    1.11961   1.10527   52.787
 3805.00    1.14428   1.11250   51.957
 3806.00    1.14643   1.12114   51.990
 3807.00    1.14367   1.12885   52.196
 3808.00    1.14082   1.13668   52.318
 3809.00    1.15175   1.14282   52.210
 3810.00    1.15021   1.14804   52.400
 3811.00    1.14101   1.15195   52.622
 3812.00    1.13898   1.15426   52.611
 3813.00    1.14527   1.15548   52.463
 3814.00    1.14770   1.15529   52.407
 3815.00    1.14291   1.15401    0.000
 3816.00    1.17571   1.15193    0.000
 3817.00    1.30597   1.14908    0.000
 3818.00    1.39053   1.14593    0.000
 3819.00    1.37409   1.14227    0.000
 3820.00    1.32383   1.13879    0.000
 3821.00    1.20236   1.13505    0.000
 3822.00    1.13409   1.13142    0.000
 3823.00    1.13733   1.12791    0.000
 3824.00    1.13713   1.12437   52.936
 3825.00    1.12689   1.12081   53.269
 3826.00    1.11885   1.11699   53.447
 3827.00    1.10523   1.11214   53.738
 3828.00    1.10482   1.10719   53.864
 3829.00    1.08839   1.10027   54.049
 3830.00    1.08147   1.09344    0.000
 3831.00    1.13210   1.08459    0.000
 3832.00    1.59555   1.07569    0.000
 3833.00    2.49016   1.06577    0.000
 3834.00    2.98112   1.05626    0.000
 3835.00    2.94022   1.04743    0.000
 3836.00    2.38591   1.03978    0.000
 3837.00    1.44563   1.03473    0.000
 3838.00    1.08661   1.03154    0.000
 3839.00    1.06580   1.03240    0.000
 3840.00    1.07986   1.03538    0.000
 3841.00    1.09648   1.04189   -1.000
 3842.00    1.11481   1.04980   -1.000
 3843.00    1.11801   1.05977   -1.000
 3844.00    1.11813   1.07006   -1.000
 3845.00    1.12542   1.08054   53.590
 3846.00    1.13076   1.09084   53.545
 3847.00    1.12893   1.09934   53.557
 3848.00    1.14010   1.10783   53.395
 3849.00    1.13258   1.11315   53.731
 3850.00    1.12317   1.11892   53.879
 3851.00    1.13187   1.12138   53.793
 3852.00    1.14237   1.12438   53.626
 3853.00    1.15012   1.12491   53.431
 3854.00    1.15587   1.12550   53.362
 3855.00    1.15358   1.12499   53.452
 3856.00    1.16087   1.12380   53.408
 3857.00    1.14609   1.12262   53.791
 3858.00    1.13551   1.12067   54.079
 3859.00    1.14825   1.11908    0.000
 3860.00    1.16945   1.11725    0.000
 3861.00    1.19081   1.11540    0.000
 3862.00    1.20612   1.11422    0.000
 3863.00    1.22365   1.11232    0.000
 3864.00    1.28429   1.11157    0.000
 3865.00    2.08485   1.10977    0.000
 3866.00    5.11138   1.10885    0.000
 3867.00    7.49288   1.10719    0.000
 3868.00    7.48407   1.10597    0.000
 3869.00    5.92113   1.10450    0.000
 3870.00    3.20003   1.10326    0.000
 3871.00    1.52675   1.10192    0.000
 3872.00    1.24861   1.10083    0.000
 3873.00    1.20155   1.09943    0.000
 3874.00    1.16719   1.09844    0.000
 3875.00    1.15126   1.09686    0.000
 3876.00    1.14274   1.09568    0.000
 3877.00    1.13841   1.09370   54.378
 3878.00    1.12653   1.09164   54.556
 3879.00    1.13124   1.08868   54.412
 3880.00    1.12612   1.08484   54.619
 3881.00    1.12046   1.08033   54.830
 3882.00    1.11563   1.07416    0.000
 3883.00    1.10533   1.06771    0.000
 3884.00    1.12769   1.05926    0.000
 3885.00    1.62124   1.05086    0.000
 3886.00    3.54592   1.04105    0.000
 3887.00    5.39405   1.03201    0.000
 3888.00    6.00075   1.02296    0.000
 3889.00    5.44458   1.01562    0.000
 3890.00    3.22847   1.01014    0.000
 3891.00    1.44349   1.00695    0.000
 3892.00    1.08778   1.00739    0.000
 3893.00    1.07746   1.00996    0.000
 3894.00    1.08139   1.01677    0.000
 3895.00    1.07931   1.02424    0.000
 3896.00    1.08516   1.03513   -1.000
 3897.00    1.08660   1.04467   54.881
 3898.00    1.08553   1.05602   54.947
 3899.00    1.08369   1.06529   54.931
 3900.00    1.08846   1.07466   54.721
 3901.00    1.08491   1.08230   54.697
 3902.00    1.08095   1.08896   54.734
 3903.00    1.08825   1.09440   54.454
 3904.00    1.09524   1.09887   54.157
 3905.00    1.09423   1.10241   54.110
 3906.00    1.08079   1.10560   54.373
 3907.00    1.07772   1.10788   54.381
 3908.00    1.07400   1.11041   54.342
 3909.00    1.08437   1.11198   54.033
 3910.00    1.08850   1.11410   53.860
 3911.00    1.08474   1.11524   53.840
 3912.00    1.07868   1.11679   53.903
 3913.00    1.07962   1.11736   -1.000
 3914.00    1.07901   1.11797   -1.000
 3915.00    1.08217   1.11742   -1.000
 3916.00    1.08186   1.11670   -1.000
 3917.00    1.08647   1.11498   -1.000
 3918.00    1.09558   1.11269   53.275
 3919.00    1.09035   1.10962   53.395
 3920.00    1.07696   1.10603   -1.000
 3921.00    1.06532   1.10198   -1.000
 3922.00    1.05752   1.09740   -1.000
 3923.00    1.06455   1.09283   -1.000
 3924.00    1.07244   1.08775   53.489
 3925.00    1.07757   1.08294   53.440
 3926.00    1.08542   1.07777   53.266
 3927.00    1.07869   1.07260   53.385
 3928.00    1.06992   1.06718   53.665
 3929.00    1.05385   1.06141   54.129
 3930.00    1.03367   1.05565   54.723
 3931.00    1.01439   1.04953   -1.000
 3932.00    0.97824   1.04342   -1.000
 3933.00    0.96481   1.03812   -1.000
 3934.00    0.96635   1.03296   -1.000
 3935.00    0.98373   1.03006   -1.000
 3936.00    0.99539   1.02763   56.079
 3937.00    1.01918   1.02793   55.430
 3938.00    1.05040   1.02891   54.783
 3939.00    1.06811   1.03247   -1.000
 3940.00    1.06797   1.03786   54.502
 3941.00    1.07139   1.04283   54.537
 3942.00    1.06924   1.04854   54.660
 3943.00    1.06160   1.05330   54.899
 3944.00    1.06193   1.05767   54.951
 3945.00    1.06220   1.06109   54.989
 3946.00    1.06811   1.06365   54.988
 3947.00    1.06922   1.06549   55.067
 3948.00    1.06487   1.06640   55.285
 3949.00    1.06837   1.06714   55.315
 3950.00    1.06749   1.06706   55.436
 3951.00    1.07069   1.06705   55.392
 3952.00    1.07324   1.06640   55.430
 3953.00    1.06762   1.06559   55.756
 3954.00    1.05657   1.06420   56.182
 3955.00    1.05951   1.06231   56.232
 3956.00    1.06177   1.05970   56.356
 3957.00    1.06705   1.05622    0.000
 3958.00    1.06123   1.05195    0.000
 3959.00    1.06109   1.04639    0.000
 3960.00    1.05848   1.03986    0.000
 3961.00    1.09887   1.03159    0.000
 3962.00    1.22046   1.02223    0.000
 3963.00    1.34255   1.01091    0.000
 3964.00    1.81782   0.99847    0.000
 3965.00    2.73576   0.98434    0.000
 3966.00    3.42543   0.96956    0.000
 3967.00    4.83248   0.95418    0.000
 3968.00    6.04855   0.93944    0.000
 3969.00    5.86567   0.92580    0.000
 3970.00    5.05409   0.91473    0.000
 3971.00    3.19074   0.90638    0.000
 3972.00    1.43027   0.90227    0.000
 3973.00    1.04387   0.90159    0.000
 3974.00    1.01862   0.90608    0.000
 3975.00    1.01754   0.91353    0.000
 3976.00    1.02299   0.92514    0.000
 3977.00    1.02812   0.93803   -1.000
 3978.00    1.03140   0.95301   -1.000
 3979.00    1.04070   0.96718   -1.000
 3980.00    1.03979   0.98169   59.862
 3981.00    1.03489   0.99406   60.146
 3982.00    1.03005   1.00571   60.314
 3983.00    1.03564   1.01487   60.260
 3984.00    1.02780   1.02307   60.528
 3985.00    1.02889   1.02920   60.555
 3986.00    1.04035   1.03431   60.285
 3987.00    1.03319   1.03853   60.520
 3988.00    1.03244   1.04134   60.634
 3989.00    1.02946   1.04479   60.739
 3990.00    1.03401   1.04614   60.633
 3991.00    1.03781   1.04945   60.516
 3992.00    1.03633   1.04991   60.598
 3993.00    1.04038   1.05311   60.507
 3994.00    1.04250   1.05307   60.386
 3995.00    1.03745   1.05559   60.471
 3996.00    1.03585   1.05556   60.565
 3997.00    1.03494   1.05675   60.525
 3998.00    1.03162   1.05674   60.624
 3999.00    1.03337   1.05686   60.615
 4000.00    1.02825   1.05679   60.687
 4001.00    1.02319   1.05614   -1.000
 4002.00    1.01933   1.05602   -1.000
 4003.00    1.02028   1.05497    0.000
 4004.00    1.02072   1.05487    0.000
 4005.00    1.01352   1.05377    0.000
 4006.00    1.02222   1.05384    0.000
 4007.00    1.04183   1.05296    0.000
 4008.00    1.05165   1.05329    0.000
 4009.00    1.04818   1.05299    0.000
 4010.00    1.03039   1.05367    0.000
 4011.00    1.01903   1.05399    0.000
 4012.00    1.00993   1.05497    0.000
 4013.00    1.01027   1.05583    0.000
 4014.00    1.00614   1.05690    0.000
 4015.00    1.00567   1.05790   -1.000
 4016.00    1.01037   1.05868   -1.000
 4017.00    1.00815   1.05930   -1.000
 4018.00    1.00779   1.05943   -1.000
 4019.00    1.00773   1.05934   -1.000
 4020.00    0.99612   1.05851    0.000
 4021.00    0.98922   1.05744    0.000
 4022.00    1.01035   1.05562    0.000
 4023.00    1.19089   1.05360    0.000
 4024.00    1.42317   1.05106    0.000
 4025.00    1.51917   1.04852    0.000
 4026.00    1.49035   1.04578    0.000
 4027.00    1.29050   1.04334    0.000
 4028.00    1.05300   1.04103    0.000
 4029.00    0.99883   1.03928    0.000
 4030.00    0.99590   1.03791    0.000
 4031.00    1.00096   1.03712    0.000
 4032.00    1.00457   1.03685   60.487
 4033.00    1.00112   1.03704   -1.000
 4034.00    1.00000   1.03776   -1.000
 4035.00    0.99992   1.03873   -1.000
 4036.00    0.99539   1.04007   -1.000
 4037.00    0.99470   1.04138   -1.000
 4038.00    0.99205   1.04287   -1.000
 4039.00    0.99613   1.04399   -1.000
 4040.00    0.99673   1.04512   -1.000
 4041.00    0.98871   1.04559   -1.000
 4042.00    0.98715   1.04594   -1.000
 4043.00    0.98982   1.04551   -1.000
 4044.00    0.99368   1.04501   -1.000
 4045.00    0.99672   1.04393   -1.000
 4046.00    0.99193   1.04299   -1.000
 4047.00    0.98808   1.04190   -1.000
 4048.00    0.99432   1.04123   -1.000
 4049.00    0.99118   1.04077   -1.000
 4050.00    0.99133   1.04081   -1.000
 4051.00    0.99606   1.04114   61.280
 4052.00    0.99542   1.04168   -1.000
 4053.00    0.99748   1.04237   -1.000
 4054.00    1.00418   1.04282   -1.000
 4055.00    1.00761   1.04318   -1.000
 4056.00    1.01176   1.04289   -1.000
 4057.00    1.01002   1.04234   -1.000
 4058.00    1.00289   1.04084   -1.000
 4059.00    0.99501   1.03912   -1.000
 4060.00    0.99152   1.03632   -1.000
 4061.00    0.98704   1.03356    0.000
 4062.00    0.99369   1.02964    0.000
 4063.00    0.99218   1.02618    0.000
 4064.00    0.99651   1.02156    0.000
 4065.00    1.06403   1.01797    0.000
 4066.00    1.19413   1.01320    0.000
 4067.00    1.27818   1.01010    0.000
 4068.00    1.29482   1.00581    0.000
 4069.00    1.22821   1.00364    0.000
 4070.00    1.08697   1.00026    0.000
 4071.00    1.00429   0.99909    0.000
 4072.00    0.99696   0.99677    0.000
 4073.00    1.03088   0.99636    0.000
 4074.00    1.06883   0.99500    0.000
 4075.00    1.08856   0.99507    0.000
 4076.00    1.08574   0.99454    0.000
 4077.00    1.04908   0.99495    0.000
 4078.00    0.99948   0.99525    0.000
 4079.00    0.98537   0.99593    0.000
 4080.00    0.97902   0.99688    0.000
 4081.00    0.97428   0.99784    0.000
 4082.00    0.97990   0.99925    0.000
 4083.00    0.98196   1.00027   64.408
 4084.00    0.98180   1.00177   64.474
 4085.00    0.98756   1.00246   64.367
 4086.00    0.98892   1.00357   64.382
 4087.00    0.98390   1.00348   64.620
 4088.00    0.98088   1.00364   64.787
 4089.00    0.97518   1.00232   -1.000
 4090.00    0.97624   1.00090   -1.000
 4091.00    0.97754   0.99778   -1.000
 4092.00    0.97022   0.99407   -1.000
 4093.00    0.96705   0.98852   -1.000
 4094.00    0.96653   0.98192   -1.000
 4095.00    0.97744   0.97358   65.237
 4096.00    0.98692   0.96402   64.979
 4097.00    1.10998   0.95321   -1.000
 4098.00    2.43423   0.94160   -1.000
 4099.00    5.79986   0.92975    0.000
 4100.00    8.27078   0.91810    0.000
 4101.00    8.60002   0.90760    0.000
 4102.00    6.90898   0.89862    0.000
 4103.00    3.23849   0.89215    0.000
 4104.00    1.23043   0.88819    0.000
 4105.00    0.98116   0.88745    0.000
 4106.00    0.96124   0.88939    0.000
 4107.00    0.96335   0.89428   -1.000
 4108.00    0.96360   0.90106   -1.000
 4109.00    0.95390   0.90972   -1.000
 4110.00    0.95291   0.91895   66.880
 4111.00    0.95899   0.92874   66.727
 4112.00    0.95418   0.93792   66.921
 4113.00    0.95694   0.94663   66.876
 4114.00    0.95635   0.95410   66.916
 4115.00    0.94767   0.96058   67.247
 4116.00    0.94137   0.96578    0.000
 4117.00    0.94820   0.96991    0.000
 4118.00    0.97156   0.97306    0.000
 4119.00    0.99057   0.97532    0.000
 4120.00    0.99168   0.97699    0.000
 4121.00    0.98069   0.97799    0.000
 4122.00    0.95682   0.97879    0.000
 4123.00    0.94521   0.97907    0.000
 4124.00    0.94252   0.97941    0.000
 4125.00    0.94223   0.97927    0.000
 4126.00    0.94108   0.97931   -1.000
 4127.00    0.94420   0.97879   -1.000
 4128.00    0.94122   0.97852   -1.000
 4129.00    0.94787   0.97761   -1.000
 4130.00    0.95830   0.97704   67.068
 4131.00    0.95704   0.97584   67.110
 4132.00    0.95397   0.97513   67.210
 4133.00    0.95205   0.97391   67.335
 4134.00    0.94698   0.97333   67.503
 4135.00    0.93638   0.97236   -1.000
 4136.00    0.94204   0.97207   67.695
 4137.00    0.94277   0.97143   67.780
 4138.00    0.93873   0.97132   67.889
 4139.00    0.93440   0.97076    0.000
 4140.00    0.94528   0.97053    0.000
 4141.00    0.96516   0.96972    0.000
 4142.00    0.99395   0.96909    0.000
 4143.00    1.00318   0.96791    0.000
 4144.00    0.98342   0.96691    0.000
 4145.00    0.94739   0.96555    0.000
 4146.00    0.93244   0.96450    0.000
 4147.00    0.92608   0.96338    0.000
 4148.00    0.92156   0.96264   -1.000
 4149.00    0.92908   0.96201   68.532
 4150.00    0.93444   0.96175   68.374
 4151.00    0.93730   0.96164   68.258
 4152.00    0.94396   0.96178   68.054
 4153.00    0.94081   0.96201   68.109
 4154.00    0.93553   0.96239   68.326
 4155.00    0.93061   0.96278   -1.000
 4156.00    0.92431   0.96330   -1.000
 4157.00    0.92542   0.96380   -1.000
 4158.00    0.92291   0.96440   -1.000
 4159.00    0.92019   0.96495   -1.000
 4160.00    0.92206   0.96556   -1.000
 4161.00    0.92280   0.96602   -1.000
 4162.00    0.92209   0.96639   -1.000
 4163.00    0.91686   0.96648   -1.000
 4164.00    0.91138   0.96631   -1.000
 4165.00    0.92045   0.96575   -1.000
 4166.00    0.92991   0.96478   -1.000
 4167.00    0.93286   0.96344   -1.000
 4168.00    0.92918   0.96164   -1.000
 4169.00    0.91908   0.95962   -1.000
 4170.00    0.91993   0.95718   -1.000
 4171.00    0.91839   0.95480   -1.000
 4172.00    0.91788   0.95210   -1.000
 4173.00    0.91315   0.94972   -1.000
 4174.00    0.91423   0.94718   -1.000
 4175.00    0.91736   0.94515   -1.000
 4176.00    0.91648   0.94308   68.943
 4177.00    0.90779   0.94159   -1.000
 4178.00    0.90937   0.94016   69.213
 4179.00    0.91050   0.93923   69.099
 4180.00    0.90611   0.93839   -1.000
 4181.00    0.90820   0.93789   69.176
 4182.00    0.91409   0.93743   68.928
 4183.00    0.90576   0.93714   -1.000
 4184.00    0.90343   0.93676   -1.000
 4185.00    0.90691   0.93639   -1.000
 4186.00    0.89764   0.93579   -1.000
 4187.00    0.89915   0.93510   -1.000
 4188.00    0.90394   0.93402   -1.000
 4189.00    0.90647   0.93278   -1.000
 4190.00    0.90872   0.93100   -1.000
 4191.00    0.89925   0.92903   -1.000
 4192.00    0.89689   0.92642   -1.000
 4193.00    0.89494   0.92358   -1.000
 4194.00    0.89337   0.92008   -1.000
 4195.00    0.88328   0.91641   -1.000
 4196.00    0.88005   0.91220   -1.000
 4197.00    0.87541   0.90802   -1.000
 4198.00    0.86414   0.90366   -1.000
 4199.00    0.85922   0.89968   -1.000
 4200.00    0.86318   0.89605   -1.000
 4201.00    0.87453   0.89319   69.923
 4202.00    0.88232   0.89118   69.586
 4203.00    0.88650   0.89016   69.383
 4204.00    0.89003   0.89024   69.262
 4205.00    0.88830   0.89117   69.283
 4206.00    0.89301   0.89305   69.069
 4207.00    0.89130   0.89530   69.105
 4208.00    0.89486   0.89806   68.961
 4209.00    0.89269   0.90059   68.980
 4210.00    0.88956   0.90317   69.090
 4211.00    0.89648   0.90505   68.818
 4212.00    0.89035   0.90675   69.024
 4213.00    0.88732   0.90756   -1.000
 4214.00    0.88888   0.90821   69.047
 4215.00    0.89063   0.90803   68.921
 4216.00    0.89134   0.90787   68.829
 4217.00    0.89619   0.90699   68.663
 4218.00    0.88960   0.90627   68.916
 4219.00    0.88234   0.90484   69.181
 4220.00    0.88524   0.90360   69.078
 4221.00    0.88455   0.90153   69.075
 4222.00    0.88655   0.89964   68.960
 4223.00    0.88671   0.89682   68.959
 4224.00    0.88559   0.89431   68.973
 4225.00    0.88600   0.89095   68.949
 4226.00    0.88597   0.88821   68.977
 4227.00    0.88726   0.88497   68.946
 4228.00    0.88395   0.88273   69.090
 4229.00    0.87718   0.88043   69.343
 4230.00    0.87134   0.87935   69.591
 4231.00    0.87288   0.87850   69.541
 4232.00    0.88010   0.87877   69.283
 4233.00    0.88219   0.87932   69.202
 4234.00    0.87631   0.88067   69.453
 4235.00    0.87409   0.88215   69.549
 4236.00    0.87015   0.88410   69.721
 4237.00    0.87245   0.88601   69.641
 4238.00    0.87702   0.88817   69.500
 4239.00    0.87248   0.89019   69.690
 4240.00    0.86987   0.89238   69.821
 4241.00    0.88359   0.89434   69.303
 4242.00    0.88442   0.89638   69.332
 4243.00    0.88138   0.89807   69.533
 4244.00    0.87972   0.89968   69.561
 4245.00    0.87742   0.90078   69.711
 4246.00    0.87122   0.90161   -1.000
 4247.00    0.87204   0.90179   -1.000
 4248.00    0.87168   0.90159   -1.000
 4249.00    0.87278   0.90072   -1.000
 4250.00    0.87344   0.89957   -1.000
 4251.00    0.87188   0.89786   -1.000
 4252.00    0.86864   0.89614   -1.000
 4253.00    0.86373   0.89407   -1.000
 4254.00    0.86483   0.89230   -1.000
 4255.00    0.86666   0.89035   70.641
 4256.00    0.86199   0.88894   70.911
 4257.00    0.86244   0.88752   70.895
 4258.00    0.86487   0.88666   70.821
 4259.00    0.86176   0.88591   71.034
 4260.00    0.85856   0.88562   71.209
 4261.00    0.85828   0.88551   71.274
 4262.00    0.86205   0.88563   71.185
 4263.00    0.86884   0.88588   70.956
 4264.00    0.89103   0.88610   70.081
 4265.00    0.91986   0.88629   69.005
 4266.00    0.92510   0.88617   68.868
 4267.00    0.91083   0.88580   69.410
 4268.00    0.88774   0.88494   70.363
 4269.00    0.86686   0.88374   -1.000
 4270.00    0.86051   0.88208   -1.000
 4271.00    0.85702   0.88019   -1.000
 4272.00    0.85629   0.87812   -1.000
 4273.00    0.85951   0.87612   71.699
 4274.00    0.86128   0.87433   71.655
 4275.00    0.86587   0.87291   71.561
 4276.00    0.86953   0.87202   71.418
 4277.00    0.86778   0.87160   71.546
 4278.00    0.86288   0.87177   71.768
 4279.00    0.85226   0.87224   72.203
 4280.00    0.84908   0.87311   72.392
 4281.00    0.85061   0.87393   72.409
 4282.00    0.84822   0.87484   72.510
 4283.00    0.84381   0.87534   -1.000
 4284.00    0.85670   0.87569   72.189
 4285.00    0.86950   0.87538   71.654
 4286.00    0.86939   0.87487   71.711
 4287.00    0.86601   0.87360   71.873
 4288.00    0.86714   0.87222   71.870
 4289.00    0.85651   0.87017   72.323
 4290.00    0.84837   0.86813   -1.000
 4291.00    0.84603   0.86562   72.794
 4292.00    0.85048   0.86319   72.656
 4293.00    0.85113   0.86050   72.609
 4294.00    0.84665   0.85785   72.820
 4295.00    0.84749   0.85511   72.789
 4296.00    0.84610   0.85230   72.810
 4297.00    0.84707   0.84949   72.805
 4298.00    0.84766   0.84654   72.791
 4299.00    0.84318   0.84362   72.991
 4300.00    0.84522   0.84061   72.859
 4301.00    0.85329   0.83769   72.503
 4302.00    0.85546   0.83480   72.410
 4303.00    0.85588   0.83212   72.385
 4304.00    0.85678   0.82967   72.326
 4305.00    0.85012   0.82757   72.612
 4306.00    0.84694   0.82588   72.746
 4307.00    0.84533   0.82470   72.805
 4308.00    0.84131   0.82412   72.948
 4309.00    0.84242   0.82419   72.928
 4310.00    0.84536   0.82502   72.783
 4311.00    0.84477   0.82657   72.833
 4312.00    0.84241   0.82893   72.872
 4313.00    0.84251   0.83193   72.889
 4314.00    0.83843   0.83561   73.041
 4315.00    0.84834   0.83961   72.637
 4316.00    0.85518   0.84394   72.281
 4317.00    0.85413   0.84807   72.331
 4318.00    0.85129   0.85203   72.429
 4319.00    0.84883   0.85523   72.522
 4320.00    0.85115   0.85784   72.386
 4321.00    0.85248   0.85936   72.310
 4322.00    0.85515   0.86014   72.162
 4323.00    0.85436   0.85985   72.173
 4324.00    0.85660   0.85900   72.003
 4325.00    0.85843   0.85748   71.886
 4326.00    0.86343   0.85572   71.687
 4327.00    0.86258   0.85378   71.698
 4328.00    0.85501   0.85178   71.939
 4329.00    0.86527   0.84988   71.494
 4330.00    0.86578   0.84771   71.435
 4331.00    0.86915   0.84556   71.232
 4332.00    0.87499   0.84262   70.900
 4333.00    0.87920   0.83930   70.714
 4334.00    0.89532   0.83468   70.050
 4335.00    0.93913   0.82933   -1.000
 4336.00    1.58731   0.82257   -1.000
 4337.00    5.67266   0.81522   -1.000
 4338.00   12.25561   0.80700   -1.000
 4339.00   15.63455   0.79897   -1.000
 4340.00   15.06047   0.79108    0.000
 4341.00   10.11163   0.78454    0.000
 4342.00    3.36568   0.77926    0.000
 4343.00    1.11729   0.77622    0.000
 4344.00    0.92726   0.77514    0.000
 4345.00    0.89333   0.77641    0.000
 4346.00    0.87769   0.77964    0.000
 4347.00    0.86907   0.78442    0.000
 4348.00    0.85984   0.79064    0.000
 4349.00    0.85826   0.79711    0.000
 4350.00    0.84942   0.80431    0.000
 4351.00    0.84444   0.81066    0.000
 4352.00    0.84412   0.81716    0.000
 4353.00    0.84077   0.82235    0.000
 4354.00    0.83894   0.82737    0.000
 4355.00    0.83858   0.83125    0.000
 4356.00    0.84343   0.83483    0.000
 4357.00    0.85120   0.83776    0.000
 4358.00    0.85819   0.84034    0.000
 4359.00    0.88937   0.84267    0.000
 4360.00    1.05530   0.84462    0.000
 4361.00    1.26914   0.84648    0.000
 4362.00    1.32654   0.84789    0.000
 4363.00    1.23219   0.84916    0.000
 4364.00    1.03566   0.84992    0.000
 4365.00    0.87811   0.85037    0.000
 4366.00    0.84618   0.85023    0.000
 4367.00    0.84161   0.84968   71.710
 4368.00    0.83144   0.84846   72.137
 4369.00    0.82019   0.84685   -1.000
 4370.00    0.81166   0.84460   -1.000
 4371.00    0.81171   0.84206   -1.000
 4372.00    0.80894   0.83897   -1.000
 4373.00    0.81084   0.83577   -1.000
 4374.00    0.80844   0.83219   -1.000
 4375.00    0.80822   0.82862   73.241
 4376.00    0.81202   0.82486   73.154
 4377.00    0.81231   0.82114   73.121
 4378.00    0.80559   0.81741   73.451
 4379.00    0.80134   0.81364   73.690
 4380.00    0.80000   0.81001   73.721
 4381.00    0.80729   0.80624   73.437
 4382.00    0.80763   0.80279    0.000
 4383.00    0.80498   0.79925    0.000
 4384.00    0.81931   0.79620    0.000
 4385.00    0.87816   0.79329    0.000
 4386.00    0.93403   0.79102    0.000
 4387.00    0.94847   0.78920    0.000
 4388.00    0.91487   0.78805    0.000
 4389.00    0.84596   0.78760    0.000
 4390.00    0.80435   0.78772    0.000
 4391.00    0.80165   0.78856    0.000
 4392.00    0.79375   0.78974    0.000
 4393.00    0.79241   0.79143   74.338
 4394.00    0.79717   0.79320   74.121
 4395.00    0.79956   0.79512   74.030
 4396.00    0.80019   0.79689   74.043
 4397.00    0.80363   0.79841   73.876
 4398.00    0.80340   0.79962   73.918
 4399.00    0.80331   0.80028   73.894
 4400.00    0.79958   0.80060   74.113
 4401.00    0.79749   0.80022   74.214
 4402.00    0.79792   0.79961   74.204
 4403.00    0.80233   0.79841   74.022
 4404.00    0.80525   0.79721   73.892
 4405.00    0.80048   0.79572   74.100
 4406.00    0.79867   0.79449   74.198
 4407.00    0.80252   0.79333   74.070
 4408.00    0.80248   0.79258   74.061
 4409.00    0.79945   0.79216   74.169
 4410.00    0.80104   0.79214   74.138
 4411.00    0.79510   0.79250   74.541
 4412.00    0.79064   0.79309   74.603
 4413.00    0.79630   0.79392   74.309
 4414.00    0.79980   0.79471   74.129
 4415.00    0.79499   0.79558   74.367
 4416.00    0.79566   0.79617   74.321
 4417.00    0.78829   0.79674   74.655
 4418.00    0.78063   0.79692   74.990
 4419.00    0.78211   0.79707   74.899
 4420.00    0.78196   0.79679   74.913
 4421.00    0.77853   0.79648   75.079
 4422.00    0.77879   0.79580   75.046
 4423.00    0.78088   0.79507   74.950
 4424.00    0.78214   0.79411   74.886
 4425.00    0.77930   0.79303   75.041
 4426.00    0.77901   0.79191   75.031
 4427.00    0.77127   0.79067   75.414
 4428.00    0.77092   0.78953   75.465
 4429.00    0.76998   0.78837   75.543
 4430.00    0.76548   0.78737   75.781
 4431.00    0.77042   0.78652   75.558
 4432.00    0.76860   0.78583   75.670
 4433.00    0.77162   0.78546   75.519
 4434.00    0.77851   0.78519   75.235
 4435.00    0.78041   0.78535   75.152
 4436.00    0.78969   0.78560   74.744
 4437.00    0.78912   0.78627   74.798
 4438.00    0.77954   0.78705   75.250
 4439.00    0.77233   0.78813   75.618
 4440.00    0.76814   0.78938   75.836
 4441.00    0.76342   0.79073   76.076
 4442.00    0.76701   0.79227   75.906
 4443.00    0.77073   0.79375   75.713
 4444.00    0.76913   0.79539   75.831
 4445.00    0.77171   0.79684   75.718
 4446.00    0.77582   0.79829   75.480
 4447.00    0.77431   0.79951   75.564
 4448.00    0.76936   0.80050   75.797
 4449.00    0.77302   0.80120   75.615
 4450.00    0.77794   0.80145   75.388
 4451.00    0.78708   0.80133   74.944
 4452.00    0.78379   0.80068   75.084
 4453.00    0.77718   0.79961   -1.000
 4454.00    0.77118   0.79817   -1.000
 4455.00    0.77685   0.79630   -1.000
 4456.00    0.77646   0.79434   -1.000
 4457.00    0.77666   0.79206   75.478
 4458.00    0.77628   0.79004   75.523
 4459.00    0.76989   0.78789   75.845
 4460.00    0.76339   0.78626   76.155
 4461.00    0.76534   0.78470   76.101
 4462.00    0.76512   0.78367   76.168
 4463.00    0.75748   0.78291   76.506
 4464.00    0.76072   0.78244   76.337
 4465.00    0.76922   0.78234    0.000
 4466.00    0.77126   0.78231    0.000
 4467.00    0.81591   0.78265    0.000
 4468.00    1.19592   0.78286    0.000
 4469.00    1.81197   0.78335    0.000
 4470.00    2.12296   0.78370    0.000
 4471.00    2.07428   0.78420    0.000
 4472.00    1.60844   0.78474    0.000
 4473.00    0.97712   0.78531    0.000
 4474.00    0.77986   0.78596    0.000
 4475.00    0.76686   0.78655    0.000
 4476.00    0.75619   0.78723    0.000
 4477.00    0.75619   0.78784    0.000
 4478.00    0.75921   0.78842   76.448
 4479.00    0.75853   0.78900   -1.000
 4480.00    0.75796   0.78933   -1.000
 4481.00    0.75481   0.78981   -1.000
 4482.00    0.75273   0.78989   -1.000
 4483.00    0.75974   0.79021   -1.000
 4484.00    0.76684   0.79010   76.032
 4485.00    0.76391   0.79027   76.158
 4486.00    0.76269   0.79014   76.223
 4487.00    0.76304   0.79015   76.203
 4488.00    0.76708   0.79003   75.962
 4489.00    0.77314   0.78974   75.716
 4490.00    0.76867   0.78951   75.919
 4491.00    0.76662   0.78895   -1.000
 4492.00    0.75866   0.78861   -1.000
 4493.00    0.74858   0.78787   -1.000
 4494.00    0.74554   0.78737   -1.000
 4495.00    0.75263   0.78657   -1.000
 4496.00    0.75691   0.78606   -1.000
 4497.00    0.75152   0.78541   -1.000
 4498.00    0.75278   0.78524   -1.000
 4499.00    0.75087   0.78505   -1.000
 4500.00    0.74921   0.78546   -1.000
 4501.00    0.75283   0.78587   76.773
 4502.00    0.74779   0.78675   -1.000
 4503.00    0.74978   0.78764   -1.000
 4504.00    0.75150   0.78874   -1.000
 4505.00    0.74883   0.78996   -1.000
 4506.00    0.75299   0.79107   -1.000
 4507.00    0.75242   0.79232   -1.000
 4508.00    0.74966   0.79301   -1.000
 4509.00    0.74287   0.79387   -1.000
 4510.00    0.74587   0.79397   -1.000
 4511.00    0.74811   0.79423   -1.000
 4512.00    0.74624   0.79376   -1.000
 4513.00    0.74446   0.79335   -1.000
 4514.00    0.74510   0.79241   -1.000
 4515.00    0.75011   0.79141   -1.000
 4516.00    0.74583   0.79015   -1.000
 4517.00    0.74560   0.78887   -1.000
 4518.00    0.74320   0.78743   -1.000
 4519.00    0.74132   0.78603   -1.000
 4520.00    0.74104   0.78445   -1.000
 4521.00    0.74009   0.78281   -1.000
 4522.00    0.74444   0.78099   -1.000
 4523.00    0.74162   0.77897   -1.000
 4524.00    0.73601   0.77677   -1.000
 4525.00    0.73424   0.77430   -1.000
 4526.00    0.73977   0.77163   -1.000
 4527.00    0.73674   0.76877   -1.000
 4528.00    0.73469   0.76577   -1.000
 4529.00    0.73243   0.76277   -1.000
 4530.00    0.72539   0.75972   -1.000
 4531.00    0.72403   0.75690   -1.000
 4532.00    0.72745   0.75422   78.864
 4533.00    0.73210   0.75193   78.630
 4534.00    0.73520   0.75002   78.480
 4535.00    0.72578   0.74834   79.015
 4536.00    0.71911   0.74719   79.397
 4537.00    0.71562   0.74610   79.598
 4538.00    0.70514   0.74550   -1.000
 4539.00    0.69780   0.74496   -1.000
 4540.00    0.68761   0.74468   -1.000
 4541.00    0.68634   0.74449   -1.000
 4542.00    0.69568   0.74435   -1.000
 4543.00    0.70337   0.74437   -1.000
 4544.00    0.71844   0.74443   -1.000
 4545.00    0.72748   0.74475   79.082
 4546.00    0.72466   0.74515   79.261
 4547.00    0.72247   0.74567   79.370
 4548.00    0.71932   0.74638   79.574
 4549.00    0.72144   0.74706   79.418
 4550.00    0.72035   0.74813   79.511
 4551.00    0.71562   0.74913   -1.000
 4552.00    0.71824   0.75040   -1.000
 4553.00    0.72177   0.75167   -1.000
 4554.00    0.72593   0.75288   79.168
 4555.00    0.72778   0.75437   79.103
 4556.00    0.72647   0.75549   79.163
 4557.00    0.72339   0.75707   -1.000
 4558.00    0.72862   0.75812   79.034
 4559.00    0.73094   0.75967   78.872
 4560.00    0.73837   0.76070   78.481
 4561.00    0.74173   0.76195   78.295
 4562.00    0.73660   0.76286   78.490
 4563.00    0.73479   0.76372   -1.000
 4564.00    0.71940   0.76445   -1.000
 4565.00    0.71812   0.76493   -1.000
 4566.00    0.72086   0.76536   -1.000
 4567.00    0.72000   0.76527   -1.000
 4568.00    0.72543   0.76531   -1.000
 4569.00    0.72940   0.76484   -1.000
 4570.00    0.73043   0.76468   -1.000
 4571.00    0.73301   0.76393   -1.000
 4572.00    0.72466   0.76372   -1.000
 4573.00    0.72082   0.76277   -1.000
 4574.00    0.71758   0.76255   -1.000
 4575.00    0.71830   0.76139   -1.000
 4576.00    0.72029   0.76094   -1.000
 4577.00    0.71862   0.75959   -1.000
 4578.00    0.71881   0.75866   -1.000
 4579.00    0.71364   0.75723   -1.000
 4580.00    0.71744   0.75590   -1.000
 4581.00    0.71771   0.75460   -1.000
 4582.00    0.71725   0.75308   -1.000
 4583.00    0.71597   0.75185   -1.000
 4584.00    0.71970   0.75030   -1.000
 4585.00    0.71270   0.74935   -1.000
 4586.00    0.71154   0.74805   -1.000
 4587.00    0.70886   0.74735   -1.000
 4588.00    0.71082   0.74640   -1.000
 4589.00    0.71643   0.74592   78.659
 4590.00    0.71809   0.74543   78.569
 4591.00    0.71228   0.74497   -1.000
 4592.00    0.70777   0.74467   -1.000
 4593.00    0.71269   0.74407   -1.000
 4594.00    0.71733   0.74367   -1.000
 4595.00    0.71945   0.74306   78.305
 4596.00    0.71525   0.74243   -1.000
 4597.00    0.71301   0.74179   -1.000
 4598.00    0.70629   0.74085   -1.000
 4599.00    0.70533   0.74020   -1.000
 4600.00    0.70821   0.73926    0.000
 4601.00    0.70919   0.73868    0.000
 4602.00    0.70603   0.73800    0.000
 4603.00    0.70191   0.73764    0.000
 4604.00    0.70342   0.73745    0.000
 4605.00    0.70663   0.73732    0.000
 4606.00    0.71301   0.73769    0.000
 4607.00    0.71601   0.73779    0.000
 4608.00    0.71231   0.73859    0.000
 4609.00    0.71706   0.73901    0.000
 4610.00    0.71439   0.73999    0.000
 4611.00    0.71112   0.74083    0.000
 4612.00    0.70724   0.74177    0.000
 4613.00    0.70916   0.74294    0.000
 4614.00    0.70592   0.74365    0.000
 4615.00    0.70920   0.74496    0.000
 4616.00    0.70420   0.74534    0.000
 4617.00    0.69261   0.74636    0.000
 4618.00    0.69593   0.74649    0.000
 4619.00    0.70293   0.74700    0.000
 4620.00    0.70325   0.74703    0.000
 4621.00    0.70872   0.74709    0.000
 4622.00    0.70756   0.74704    0.000
 4623.00    0.70599   0.74673    0.000
 4624.00    0.70165   0.74644    0.000
 4625.00    0.70312   0.74583    0.000
 4626.00    0.70555   0.74530    0.000
 4627.00    0.70075   0.74440    0.000
 4628.00    0.70548   0.74366    0.000
 4629.00    0.70970   0.74259    0.000
 4630.00    0.70788   0.74160    0.000
 4631.00    0.71701   0.74042    0.000
 4632.00    0.71349   0.73914    0.000
 4633.00    0.71533   0.73787    0.000
 4634.00    0.71503   0.73641    0.000
 4635.00    0.71509   0.73500    0.000
 4636.00    0.72316   0.73341    0.000
 4637.00    0.72988   0.73185    0.000
 4638.00    0.73927   0.73026    0.000
 4639.00    0.74515   0.72852    0.000
 4640.00    0.74877   0.72699    0.000
 4641.00    0.74125   0.72500    0.000
 4642.00    0.72665   0.72341    0.000
 4643.00    0.71070   0.72138    0.000
 4644.00    0.70078   0.71968    0.000
 4645.00    0.69565   0.71803    0.000
 4646.00    0.70386   0.71636    0.000
 4647.00    0.72002   0.71534    0.000
 4648.00    0.74135   0.71391    0.000
 4649.00    0.73532   0.71356    0.000
 4650.00    0.72124   0.71246    0.000
 4651.00    0.71326   0.71255    0.000
 4652.00    0.69943   0.71213    0.000
 4653.00    0.69712   0.71264    0.000
 4654.00    0.71071   0.71317    0.000
 4655.00    0.76680   0.71425    0.000
 4656.00    0.81635   0.71547    0.000
 4657.00    0.83170   0.71684    0.000
 4658.00    0.81641   0.71816    0.000
 4659.00    0.76186   0.71911    0.000
 4660.00    0.72312   0.72018    0.000
 4661.00    0.71874   0.72047    0.000
 4662.00    0.71042   0.72095    0.000
 4663.00    0.70181   0.72049    0.000
 4664.00    0.69629   0.72014    0.000
 4665.00    0.69968   0.71899    0.000
 4666.00    0.69555   0.71778    0.000
 4667.00    0.69056   0.71616    0.000
 4668.00    0.69689   0.71416    0.000
 4669.00    0.69353   0.71248    0.000
 4670.00    0.68988   0.71033    0.000
 4671.00    0.69284   0.70878    0.000
 4672.00    0.69474   0.70720    0.000
 4673.00    0.69355   0.70585    0.000
 4674.00    0.69909   0.70506    0.000
 4675.00    0.69634   0.70403    0.000
 4676.00    0.69414   0.70376    0.000
 4677.00    0.69707   0.70289    0.000
 4678.00    0.69347   0.70262    0.000
 4679.00    0.69088   0.70162    0.000
 4680.00    0.68437   0.70089    0.000
 4681.00    0.68003   0.69982    0.000
 4682.00    0.67130   0.69851    0.000
 4683.00    0.65712   0.69732    0.000
 4684.00    0.64927   0.69568    0.000
 4685.00    0.64677   0.69440    0.000
 4686.00    0.65401   0.69295    0.000
 4687.00    0.66940   0.69188    0.000
 4688.00    0.67951   0.69091    0.000
 4689.00    0.68215   0.69024    0.000
 4690.00    0.68671   0.68998    0.000
 4691.00    0.68521   0.68980    0.000
 4692.00    0.68576   0.69005    0.000
 4693.00    0.68679   0.69038    0.000
 4694.00    0.68691   0.69092    0.000
 4695.00    0.68663   0.69159    0.000
 4696.00    0.68784   0.69193    0.000
 4697.00    0.68666   0.69236    0.000
 4698.00    0.69744   0.69235    0.000
 4699.00    0.70901   0.69229    0.000
 4700.00    0.71382   0.69195    0.000
 4701.00    0.71333   0.69129    0.000
 4702.00    0.69979   0.69067    0.000
 4703.00    0.68049   0.68953    0.000
 4704.00    0.67556   0.68863    0.000
 4705.00    0.67354   0.68720    0.000
 4706.00    0.67634   0.68623    0.000
 4707.00    0.67970   0.68509    0.000
 4708.00    0.69040   0.68429    0.000
 4709.00    0.72607   0.68340    0.000
 4710.00    0.79438   0.68278    0.000
 4711.00    0.84535   0.68233    0.000
 4712.00    0.84259   0.68187    0.000
 4713.00    0.80954   0.68186    0.000
 4714.00    0.73572   0.68164    0.000
 4715.00    0.68019   0.68209    0.000
 4716.00    0.67307   0.68229    0.000
 4717.00    0.66913   0.68311    0.000
 4718.00    0.66680   0.68359    0.000
 4719.00    0.66775   0.68433    0.000
 4720.00    0.66733   0.68496    0.000
 4721.00    0.66571   0.68551    0.000
 4722.00    0.66665   0.68620    0.000
 4723.00    0.66521   0.68637    0.000
 4724.00    0.66529   0.68669    0.000
 4725.00    0.67191   0.68598    0.000
 4726.00    0.66752   0.68565    0.000
 4727.00    0.66461   0.68432    0.000
 4728.00    0.65932   0.68329    0.000
 4729.00    0.66418   0.68169    0.000
 4730.00    0.66728   0.68016    0.000
 4731.00    0.67072   0.67871    0.000
 4732.00    0.67353   0.67690    0.000
 4733.00    0.67226   0.67560    0.000
 4734.00    0.66607   0.67390    0.000
 4735.00    0.66391   0.67310    0.000
 4736.00    0.66637   0.67220    0.000
 4737.00    0.67763   0.67191    0.000
 4738.00    0.69082   0.67166    0.000
 4739.00    0.68839   0.67166    0.000
 4740.00    0.68296   0.67170    0.000
 4741.00    0.67112   0.67185    0.000
 4742.00    0.65746   0.67205    0.000
 4743.00    0.66046   0.67230    0.000
 4744.00    0.65900   0.67269    0.000
 4745.00    0.65536   0.67289    0.000
 4746.00    0.65570   0.67326    0.000
 4747.00    0.65436   0.67333    0.000
 4748.00    0.65954   0.67341    0.000
 4749.00    0.65787   0.67343    0.000
 4750.00    0.65958   0.67324    0.000
 4751.00    0.66398   0.67304   81.261
 4752.00    0.67200   0.67257   80.736
 4753.00    0.67917   0.67204   80.303
 4754.00    0.68060   0.67123   80.205
 4755.00    0.67281   0.67035   80.647
 4756.00    0.66026   0.66914   81.400
 4757.00    0.65193   0.66799   81.888
 4758.00    0.65004   0.66631   81.990
 4759.00    0.65633   0.66490   81.590
 4760.00    0.65664   0.66300   81.554
 4761.00    0.64969   0.66130   81.973
 4762.00    0.64831   0.65954   82.004
 4763.00    0.64965   0.65761   81.943
 4764.00    0.64428   0.65611   82.225
 4765.00    0.64565   0.65416   82.128
 4766.00    0.65289   0.65304   81.670
 4767.00    0.65677   0.65143   81.419
 4768.00    0.66090   0.65047   81.135
 4769.00    0.65704   0.64954   81.356
 4770.00    0.65237   0.64875   81.608
 4771.00    0.64647   0.64876   81.937
 4772.00    0.65177   0.64835   81.627
 4773.00    0.65049   0.64902   81.700
 4774.00    0.65382   0.64898   81.464
 4775.00    0.65708   0.64979   81.210
 4776.00    0.65526   0.65003   81.318
 4777.00    0.65189   0.65040   81.514
 4778.00    0.64818   0.65070   81.713
 4779.00    0.64431   0.65065   81.973
 4780.00    0.64157   0.65082   82.118
 4781.00    0.64134   0.65043   82.118
 4782.00    0.64389   0.65008   81.913
 4783.00    0.64349   0.64940   81.956
 4784.00    0.64159   0.64866   82.036
 4785.00    0.64194   0.64783   81.997
 4786.00    0.64437   0.64708   81.833
 4787.00    0.64496   0.64630   81.737
 4788.00    0.64459   0.64585   81.751
 4789.00    0.64414   0.64535   81.788
 4790.00    0.64584   0.64541   81.680
 4791.00    0.64675   0.64547   81.562
 4792.00    0.64710   0.64607   81.503
 4793.00    0.64395   0.64668   81.703
 4794.00    0.64147   0.64751   81.843
 4795.00    0.64581   0.64843   81.518
 4796.00    0.64186   0.64925   81.762
 4797.00    0.63960   0.65030   81.868
 4798.00    0.64319   0.65109   81.627
 4799.00    0.64025   0.65198   81.800
 4800.00    0.64211   0.65262   81.678
 4801.00    0.64160   0.65299   81.686
 4802.00    0.64305   0.65313   81.552
 4803.00    0.64325   0.65299   81.505
 4804.00    0.64170   0.65263   81.607
 4805.00    0.63648   0.65234   81.880
 4806.00    0.63663   0.65174   81.882
 4807.00    0.63786   0.65155   81.815
 4808.00    0.64029   0.65080   81.645
 4809.00    0.63778   0.65049   81.791
 4810.00    0.63957   0.64974   81.647
 4811.00    0.64296   0.64923   81.426
 4812.00    0.64603   0.64880   81.214
 4813.00    0.65285   0.64842   80.782
 4814.00    0.65044   0.64839   80.903
 4815.00    0.64944   0.64819   80.940
 4816.00    0.64342   0.64838   81.306
 4817.00    0.64058   0.64828   81.462
 4818.00    0.63947   0.64832   81.532
 4819.00    0.63734   0.64825   81.639
 4820.00    0.63795   0.64808   81.552
 4821.00    0.63558   0.64782   81.703
 4822.00    0.63917   0.64744   81.477
 4823.00    0.64240   0.64688   81.225
 4824.00    0.63671   0.64631   81.540
 4825.00    0.63741   0.64535   81.497
 4826.00    0.64113   0.64442   81.219
 4827.00    0.64294   0.64319   81.101
 4828.00    0.64132   0.64196   81.157
 4829.00    0.64252   0.64073   81.022
 4830.00    0.64364   0.63950   80.956
 4831.00    0.64394   0.63855   80.902
 4832.00    0.63936   0.63747   81.153
 4833.00    0.63656   0.63668   81.302
 4834.00    0.64455   0.63573   80.773
 4835.00    0.64685   0.63504   80.568
 4836.00    0.64862   0.63424   80.452
 4837.00    0.64672   0.63373   80.549
 4838.00    0.64114   0.63318   80.869
 4839.00    0.64326   0.63275   80.709
 4840.00    0.65233   0.63242   80.103
 4841.00    0.65150   0.63188   80.134
 4842.00    0.65976   0.63152   79.606
 4843.00    0.66402   0.63091   79.299
 4844.00    0.66023   0.63035   79.461
 4845.00    0.66258   0.62978   79.270
 4846.00    0.66549   0.62884   79.080
 4847.00    0.66751   0.62825   78.907
 4848.00    0.67616   0.62692   -1.000
 4849.00    0.68432   0.62589   -1.000
 4850.00    0.69064   0.62429   -1.000
 4851.00    0.70158   0.62224   -1.000
 4852.00    0.71217   0.62015   -1.000
 4853.00    0.72325   0.61678   -1.000
 4854.00    0.74558   0.61389   -1.000
 4855.00    0.80400   0.60955   -1.000
 4856.00    1.04486   0.60542   -1.000
 4857.00    3.90457   0.60045    0.000
 4858.00   16.04679   0.59478    0.000
 4859.00   30.11103   0.58952    0.000
 4860.00   36.27655   0.58333    0.000
 4861.00   33.02583   0.57851    0.000
 4862.00   18.47453   0.57337    0.000
 4863.00    4.60908   0.56941    0.000
 4864.00    1.14878   0.56602    0.000
 4865.00    0.83877   0.56326    0.000
 4866.00    0.77440   0.56208    0.000
 4867.00    0.74771   0.56169    0.000
 4868.00    0.73090   0.56290    0.000
 4869.00    0.71286   0.56487    0.000
 4870.00    0.70092   0.56783    0.000
 4871.00    0.68518   0.57110   -1.000
 4872.00    0.67665   0.57496   -1.000
 4873.00    0.67484   0.57871   -1.000
 4874.00    0.67301   0.58288   -1.000
 4875.00    0.66529   0.58659   -1.000
 4876.00    0.65687   0.59029   -1.000
 4877.00    0.65421   0.59380   -1.000
 4878.00    0.67098   0.59675   -1.000
 4879.00    0.68795   0.59976   -1.000
 4880.00    0.68259   0.60188   -1.000
 4881.00    0.66771   0.60396   -1.000
 4882.00    0.65044   0.60536   79.381
 4883.00    0.63948   0.60642   80.100
 4884.00    0.63546   0.60728   80.344
 4885.00    0.62424   0.60761   81.050
 4886.00    0.62341   0.60787   81.093
 4887.00    0.63272   0.60779   80.500
 4888.00    0.64147   0.60761   79.936
 4889.00    0.63656   0.60731   80.252
 4890.00    0.63021   0.60719   80.633
 4891.00    0.62614   0.60705   80.879
 4892.00    0.62632   0.60769   80.877
 4893.00    0.62738   0.60800   80.817
 4894.00    0.62350   0.60916   81.071
 4895.00    0.62114   0.61008   81.244
 4896.00    0.61944   0.61132   81.330
 4897.00    0.62130   0.61319   81.217
 4898.00    0.62550   0.61460   80.973
 4899.00    0.62849   0.61703   80.806
 4900.00    0.62586   0.61830   81.004
 4901.00    0.62045   0.62008   81.405
 4902.00    0.62488   0.62124   81.123
 4903.00    0.63068   0.62208   80.782
 4904.00    0.62267   0.62311   81.314
 4905.00    0.61771   0.62334   81.662
 4906.00    0.62139   0.62383   81.455
 4907.00    0.61754   0.62356   81.757
 4908.00    0.61711   0.62309   81.798
 4909.00    0.61556   0.62278   81.930
 4910.00    0.61610   0.62188   81.920
 4911.00    0.61656   0.62135   81.948
 4912.00    0.61090   0.62021   82.334
 4913.00    0.61051   0.61901   82.380
 4914.00    0.61496   0.61774    0.000
 4915.00    0.61628   0.61595    0.000
 4916.00    0.61117   0.61454    0.000
 4917.00    0.62070   0.61265    0.000
 4918.00    0.68555   0.61068    0.000
 4919.00    0.84828   0.60902    0.000
 4920.00    0.97939   0.60684    0.000
 4921.00    1.00858   0.60553    0.000
 4922.00    0.91963   0.60372    0.000
 4923.00    0.73948   0.60242    0.000
 4924.00    0.64018   0.60159    0.000
 4925.00    0.62700   0.60073    0.000
 4926.00    0.62494   0.60146    0.000
 4927.00    0.62336   0.60165    0.000
 4928.00    0.63157   0.60323    0.000
 4929.00    0.63733   0.60404   -1.000
 4930.00    0.63758   0.60541   -1.000
 4931.00    0.63634   0.60680   80.955
 4932.00    0.63118   0.60793   81.285
 4933.00    0.62571   0.60971   81.677
 4934.00    0.62668   0.61036   81.644
 4935.00    0.62604   0.61148   81.691
 4936.00    0.62984   0.61135   81.457
 4937.00    0.63247   0.61139   81.306
 4938.00    0.63502   0.61115   81.189
 4939.00    0.63556   0.61076   81.167
 4940.00    0.63523   0.61106   81.133
 4941.00    0.64024   0.61050   80.848
 4942.00    0.62920   0.61058   81.621
 4943.00    0.62768   0.61028    0.000
 4944.00    0.65598   0.61051    0.000
 4945.00    0.66785   0.61128    0.000
 4946.00    0.67323   0.61179    0.000
 4947.00    0.67481   0.61306    0.000
 4948.00    0.68274   0.61355    0.000
 4949.00    0.69994   0.61424    0.000
 4950.00    0.72389   0.61444    0.000
 4951.00    0.75632   0.61473    0.000
 4952.00    0.81389   0.61480    0.000
 4953.00    0.92192   0.61422    0.000
 4954.00    1.70664   0.61342    0.000
 4955.00    9.20598   0.61162    0.000
 4956.00   28.44820   0.61011    0.000
 4957.00   43.39776   0.60762    0.000
 4958.00   44.90596   0.60572    0.000
 4959.00   33.24893   0.60347    0.000
 4960.00   13.46146   0.60084    0.000
 4961.00    2.65332   0.59884    0.000
 4962.00    1.01681   0.59599    0.000
 4963.00    0.83974   0.59469    0.000
 4964.00    0.77428   0.59320    0.000
 4965.00    0.74608   0.59220    0.000
 4966.00    0.72043   0.59154    0.000
 4967.00    0.69299   0.59059    0.000
 4968.00    0.67857   0.59040    0.000
 4969.00    0.67359   0.59000    0.000
 4970.00    0.66791   0.59013    0.000
 4971.00    0.66341   0.59050    0.000
 4972.00    0.66452   0.59073   -1.000
 4973.00    0.65678   0.59093   -1.000
 4974.00    0.65297   0.59116   -1.000
 4975.00    0.65192   0.59111   -1.000
 4976.00    0.64558   0.59113   -1.000
 4977.00    0.64587   0.59081   -1.000
 4978.00    0.65218   0.59031   -1.000
 4979.00    0.65330   0.58955   -1.000
 4980.00    0.65131   0.58852   -1.000
 4981.00    0.65499   0.58715   -1.000
 4982.00    0.67516   0.58576   -1.000
 4983.00    0.71028   0.58421   -1.000
 4984.00    0.73776   0.58286   -1.000
 4985.00    0.74827   0.58160   -1.000
 4986.00    0.73721   0.58020   -1.000
 4987.00    0.70761   0.57925   -1.000
 4988.00    0.69419   0.57827   -1.000
 4989.00    0.69699   0.57810   -1.000
 4990.00    0.70404   0.57790   -1.000
 4991.00    0.71319   0.57826   -1.000
 4992.00    0.73001   0.57847   -1.000
 4993.00    0.75053   0.57872   -1.000
 4994.00    0.77062   0.57904   -1.000
 4995.00    0.79379   0.57913    0.000
 4996.00    0.83608   0.57954    0.000
 4997.00    0.88179   0.57934    0.000
 4998.00    0.94241   0.57909    0.000
 4999.00    1.04322   0.57840    0.000
 5000.00    1.21096   0.57735    0.000
 5001.00    1.58656   0.57658    0.000
 5002.00    4.44024   0.57508    0.000
 5003.00   30.01003   0.57369    0.000
 5004.00   89.88535   0.57182    0.000
 5005.00  132.85495   0.56992    0.000
 5006.00  134.48738   0.56857    0.000
 5007.00   96.01700   0.56670    0.000
 5008.00   35.98339   0.56558    0.000
 5009.00    6.05179   0.56380    0.000
 5010.00    1.78446   0.56233    0.000
 5011.00    1.31742   0.56100   -1.000
 5012.00    1.30967   0.55962   -1.000
 5013.00    1.51190   0.55915   -1.000
 5014.00    1.62501   0.55801   -1.000
 5015.00    1.57449   0.55743   -1.000
 5016.00    1.30902   0.55651   -1.000
 5017.00    0.90647   0.55590   -1.000
 5018.00    0.74905   0.55559   -1.000
 5019.00    0.72361   0.55534   -1.000
 5020.00    0.71162   0.55561   -1.000
 5021.00    0.68692   0.55577   -1.000
 5022.00    0.67646   0.55623   -1.000
 5023.00    0.66632   0.55691   -1.000
 5024.00    0.65794   0.55771   -1.000
 5025.00    0.64867   0.55874   -1.000
 5026.00    0.64692   0.55975   -1.000
 5027.00    0.64141   0.56072   -1.000
 5028.00    0.63663   0.56213   -1.000
 5029.00    0.63632   0.56325   -1.000
 5030.00    0.63570   0.56470   -1.000
 5031.00    0.63047   0.56551   -1.000
 5032.00    0.62129   0.56624   -1.000
 5033.00    0.61590   0.56694   -1.000
 5034.00    0.61955   0.56717   -1.000
 5035.00    0.61636   0.56775   -1.000
 5036.00    0.61305   0.56741   81.921
 5037.00    0.61469   0.56738   81.808
 5038.00    0.62326   0.56657   -1.000
 5039.00    0.64006   0.56557   -1.000
 5040.00    0.64230   0.56462   -1.000
 5041.00    0.63226   0.56342   -1.000
 5042.00    0.61076   0.56318   82.049
 5043.00    0.59755   0.56217   82.928
 5044.00    0.60344   0.56160   -1.000
 5045.00    0.62571   0.56087   -1.000
 5046.00    0.64059   0.56059   -1.000
 5047.00    0.64117   0.56118   -1.000
 5048.00    0.62588   0.56132   -1.000
 5049.00    0.59866   0.56231   -1.000
 5050.00    0.58606   0.56262   83.729
 5051.00    0.58408   0.56352   83.875
 5052.00    0.58609   0.56417   83.716
 5053.00    0.60411   0.56503   82.428
 5054.00    0.62156   0.56594   -1.000
 5055.00    0.62267   0.56671   -1.000
 5056.00    0.61635   0.56782   -1.000
 5057.00    0.59321   0.56845   83.183
 5058.00    0.57393   0.56941   84.577
 5059.00    0.57395   0.57014   84.592
 5060.00    0.57597   0.57065   84.382
 5061.00    0.57601   0.57132   84.418
 5062.00    0.57703   0.57136   84.326
 5063.00    0.57252   0.57154   84.654
 5064.00    0.56895   0.57129   84.898
 5065.00    0.57467   0.57078   84.487
 5066.00    0.56743   0.57035   84.988
 5067.00    0.56614   0.56915   85.086
 5068.00    0.56495   0.56811   85.177
 5069.00    0.56759   0.56663   84.973
 5070.00    0.56842   0.56533   84.925
 5071.00    0.57200   0.56416   84.631
 5072.00    0.57471   0.56261   84.440
 5073.00    0.57494   0.56140   84.434
 5074.00    0.57122   0.55998   84.685
 5075.00    0.56713   0.55883   84.981
 5076.00    0.56555   0.55763   85.129
 5077.00    0.56496   0.55640   85.137
 5078.00    0.56827   0.55540   84.899
 5079.00    0.56713   0.55437   84.974
 5080.00    0.56172   0.55343   85.381
 5081.00    0.55971   0.55258   85.532
 5082.00    0.56419   0.55181   85.187
 5083.00    0.56941   0.55114   84.790
 5084.00    0.56556   0.55067   85.057
 5085.00    0.56353   0.55041   85.233
 5086.00    0.55993   0.55060   85.495
 5087.00    0.55605   0.55075   85.806
 5088.00    0.55837   0.55120   85.617
 5089.00    0.55644   0.55173   85.771
 5090.00    0.55812   0.55244   85.669
 5091.00    0.56484   0.55336   85.138
 5092.00    0.56343   0.55405   85.244
 5093.00    0.55882   0.55474   85.599
 5094.00    0.56161   0.55530   85.404
 5095.00    0.55816   0.55546   85.678
 5096.00    0.55457   0.55573   85.947
 5097.00    0.55559   0.55556   85.876
 5098.00    0.55128   0.55521   86.215
 5099.00    0.55131   0.55474   86.194
 5100.00    0.55125   0.55366   86.217
 5101.00    0.55880   0.55294   85.645
 5102.00    0.56101   0.55188   85.476
 5103.00    0.55837   0.55088   85.681
 5104.00    0.55214   0.54987   86.131
 5105.00    0.54712   0.54886   86.565
 5106.00    0.55372   0.54812   86.055
 5107.00    0.55640   0.54730   85.837
 5108.00    0.55807   0.54669   85.709
 5109.00    0.55532   0.54617   85.934
 5110.00    0.55669   0.54595   85.828
 5111.00    0.55627   0.54593   85.852
 5112.00    0.55007   0.54587   86.324
 5113.00    0.55141   0.54609   86.229
 5114.00    0.55140   0.54636   86.225
 5115.00    0.55045   0.54680   86.304
 5116.00    0.55216   0.54737   86.149
 5117.00    0.55486   0.54767   85.922
 5118.00    0.55454   0.54811   85.951
 5119.00    0.55320   0.54828   86.051
 5120.00    0.54915   0.54838   86.347
 5121.00    0.54398   0.54833   86.727
 5122.00    0.54239   0.54778   86.840
 5123.00    0.54550   0.54729   86.601
 5124.00    0.54863   0.54627   86.333
 5125.00    0.54715   0.54534   86.460
 5126.00    0.54559   0.54434   86.551
 5127.00    0.54429   0.54296   86.620
 5128.00    0.54559   0.54201   86.514
 5129.00    0.54910   0.54078   86.211
 5130.00    0.54199   0.53999   86.739
 5131.00    0.54005   0.53952   86.876
 5132.00    0.54256   0.53883   86.633
 5133.00    0.54475   0.53867   86.484
 5134.00    0.54788   0.53846   86.191
 5135.00    0.54319   0.53853   86.505
 5136.00    0.53960   0.53894   86.809
 5137.00    0.54090   0.53893   86.664
 5138.00    0.54208   0.53905   86.562
 5139.00    0.54089   0.53910   86.622
 5140.00    0.54052   0.53902   86.629
 5141.00    0.53768   0.53904   86.859
 5142.00    0.53835   0.53853   86.775
 5143.00    0.54019   0.53792   86.580
 5144.00    0.53971   0.53740   86.577
 5145.00    0.54515   0.53668   86.128
 5146.00    0.54802   0.53590   85.854
 5147.00    0.54340   0.53501   86.202
 5148.00    0.53858   0.53403   86.550
 5149.00    0.54199   0.53339   86.264
 5150.00    0.54557   0.53272   85.959
 5151.00    0.54270   0.53191   86.195
 5152.00    0.53988   0.53157   86.386
 5153.00    0.54180   0.53115   86.191
 5154.00    0.54043   0.53113   86.278
 5155.00    0.54589   0.53116   85.827
 5156.00    0.54903   0.53096   85.556
 5157.00    0.55037   0.53129   85.432
 5158.00    0.55467   0.53129   85.080
 5159.00    0.54991   0.53139   85.440
 5160.00    0.54221   0.53121   86.012
 5161.00    0.53916   0.53057   86.253
 5162.00    0.54203   0.52976   85.986
 5163.00    0.54316   0.52824   85.897
 5164.00    0.53793   0.52633   86.296
 5165.00    0.52979   0.52375   86.910
 5166.00    0.53331   0.52060   86.633
 5167.00    0.53675   0.51709   86.335
 5168.00    0.53556   0.51338   86.407
 5169.00    0.53109   0.50936   86.804
 5170.00    0.53807   0.50522   86.198
 5171.00    0.53766   0.50084   86.204
 5172.00    0.53113   0.49697   86.729
 5173.00    0.53263   0.49420   -1.000
 5174.00    0.53446   0.49141   -1.000
 5175.00    0.53539   0.48953   -1.000
 5176.00    0.53466   0.48716   -1.000
 5177.00    0.53607   0.48583   -1.000
 5178.00    0.53520   0.48592   -1.000
 5179.00    0.53339   0.48569   -1.000
 5180.00    0.53186   0.48657   -1.000
 5181.00    0.53109   0.48616   -1.000
 5182.00    0.53045   0.48654   -1.000
 5183.00    0.52806   0.48772   86.863
 5184.00    0.53123   0.48847   86.568
 5185.00    0.52886   0.49019   86.752
 5186.00    0.52528   0.49058   87.024
 5187.00    0.52455   0.49160   87.054
 5188.00    0.53422   0.49314   -1.000
 5189.00    0.54527   0.49459   -1.000
 5190.00    0.54747   0.49692    0.000
 5191.00    0.54581   0.49828    0.000
 5192.00    0.54086   0.50003    0.000
 5193.00    0.53958   0.50205    0.000
 5194.00    0.55218   0.50398    0.000
 5195.00    0.59502   0.50617    0.000
 5196.00    0.62849   0.50767    0.000
 5197.00    0.65463   0.50901    0.000
 5198.00    0.64944   0.51038    0.000
 5199.00    0.61531   0.51133    0.000
 5200.00    0.58356   0.51207    0.000
 5201.00    0.55132   0.51227    0.000
 5202.00    0.52732   0.51206    0.000
 5203.00    0.52452   0.51183    0.000
 5204.00    0.52323   0.51086    0.000
 5205.00    0.52344   0.51004    0.000
 5206.00    0.52753   0.50885   86.425
 5207.00    0.52494   0.50755   86.635
 5208.00    0.52288   0.50661   86.807
 5209.00    0.52504   0.50523   86.593
 5210.00    0.52519   0.50474   86.570
 5211.00    0.52096   0.50450   86.898
 5212.00    0.52335   0.50460   86.662
 5213.00    0.52256   0.50533   86.718
 5214.00    0.51987   0.50608   86.936
 5215.00    0.51970   0.50767   86.930
 5216.00    0.52060   0.50968   86.845
 5217.00    0.52212   0.51170   86.695
 5218.00    0.51834   0.51394   87.024
 5219.00    0.52162   0.51577   86.711
 5220.00    0.52541   0.51774   86.355
 5221.00    0.52340   0.51965   86.497
 5222.00    0.52409   0.52093   86.396
 5223.00    0.52408   0.52222   86.349
 5224.00    0.52178   0.52253   86.569
 5225.00    0.51944   0.52296   86.705
 5226.00    0.52454   0.52317   86.287
 5227.00    0.52794   0.52276   85.972
 5228.00    0.52535   0.52298   86.167
 5229.00    0.51827   0.52236   86.739
 5230.00    0.51682   0.52232   86.848
 5231.00    0.51975   0.52244   86.588
 5232.00    0.51845   0.52232   86.670
 5233.00    0.51795   0.52318   86.708
 5234.00    0.52182   0.52376   86.400
 5235.00    0.52459   0.52476   86.158
 5236.00    0.51915   0.52596   86.585
 5237.00    0.51231   0.52708   87.147
 5238.00    0.51860   0.52855   86.625
 5239.00    0.51989   0.53005   86.560
 5240.00    0.51704   0.53128   86.776
 5241.00    0.51943   0.53245   86.575
 5242.00    0.51539   0.53339   86.936
 5243.00    0.51502   0.53410   86.965
 5244.00    0.51212   0.53471   87.173
 5245.00    0.51513   0.53468   86.917
 5246.00    0.51227   0.53466   87.130
 5247.00    0.51277   0.53419   87.075
 5248.00    0.51749   0.53370   86.679
 5249.00    0.51130   0.53301   87.175
 5250.00    0.50732   0.53178   -1.000
 5251.00    0.50957   0.53109   87.279
 5252.00    0.51064   0.53000   87.147
 5253.00    0.51026   0.52922   87.168
 5254.00    0.50770   0.52845   87.338
 5255.00    0.51146   0.52724   87.035
 5256.00    0.51009   0.52684   87.103
 5257.00    0.51219   0.52610   86.928
 5258.00    0.52054   0.52523   86.148
 5259.00    0.52693   0.52449   85.626
 5260.00    0.52728   0.52307   85.578
 5261.00    0.52375   0.52203   85.842
 5262.00    0.51736   0.52063   86.324
 5263.00    0.50894   0.51844   87.012
 5264.00    0.50963   0.51641   86.968
 5265.00    0.51405   0.51390   86.583
 5266.00    0.52025   0.51141   86.048
 5267.00    0.54346   0.50932   84.151
 5268.00    0.57346   0.50635   -1.000
 5269.00    0.58224   0.50400   -1.000
 5270.00    0.58095   0.50244   -1.000
 5271.00    0.55836   0.50059   -1.000
 5272.00    0.52770   0.50059   -1.000
 5273.00    0.51539   0.49969   86.320
 5274.00    0.51050   0.49969   86.717
 5275.00    0.51112   0.50140   86.633
 5276.00    0.51403   0.50210   86.384
 5277.00    0.51080   0.50503   86.630
 5278.00    0.50818   0.50673   86.826
 5279.00    0.50729   0.50893   86.883
 5280.00    0.51081   0.51238   86.579
 5281.00    0.51072   0.51441   86.560
 5282.00    0.50782   0.51770   86.739
 5283.00    0.50424   0.51983   87.058
 5284.00    0.50889   0.52221   86.627
 5285.00    0.50319   0.52480   87.095
 5286.00    0.50451   0.52657   86.945
 5287.00    0.50710   0.52862   86.719
 5288.00    0.50661   0.52992   86.728
 5289.00    0.50615   0.53165   86.735
 5290.00    0.50967   0.53287   86.417
 5291.00    0.51786   0.53367   85.737
 5292.00    0.51134   0.53449   86.246
 5293.00    0.50845   0.53466   86.472
 5294.00    0.50636   0.53517   -1.000
 5295.00    0.50677   0.53508   -1.000
 5296.00    0.51032   0.53432   -1.000
 5297.00    0.51113   0.53402   -1.000
 5298.00    0.51349   0.53324   85.957
 5299.00    0.50825   0.53270   -1.000
 5300.00    0.50465   0.53219   -1.000
