###################################################################
## OUTPUT of StarlightChains_v04.for    [Cid@UFSC - 01/Apr/2007] ##
###################################################################

## Some input info
M33_LS4_20211119f_2.spec                 [arq_obs]
Base.BC03.N                              [arq_base]
Mask.EmLines_CHAOS_focusbluefit.gm       [arq_masks]
StCv04.C11.config                        [arq_config]
   45                                    [N_base]
    0                                    [N_YAV_components = # of components with extra extinction!]
    0                                    [i_FitPowerLaw (1/0 = Yes/No)]
-9.99                                    [alpha_PowerLaw]
CCM                                      [red_law_option]
 1.458241                                [q_norm = A(l_norm)/A(V)]

## (Re)Sampling Parameters
 3100.00                                 [l_ini (A)]
 5300.00                                 [l_fin (A)]
    1.00                                 [dl    (A)]     (OBS: dl_cushion =    50.00 A)

## Normalization info
 4020.00                                 [l_norm (A) - for base]
 4010.00                                 [llow_norm (A) - window for f_obs]
 4060.00                                 [lupp_norm (A) - window for f_obs]
5.492706E-16                             [fobs_norm (in input units)]

## S/N
 4730.00                                 [llow_SN (A) - window for S/N]
 4780.00                                 [lupp_SN (A) - window for S/N]
  44.654                                 [S/N in S/N window]
  64.456                                 [S/N in norm. window]
  46.731                                 [S/N_err in S/N window]
  67.453                                 [S/N_err in norm. window]
  1.0000                                 [fscale_chi2]

## etc...
    -2007206                             [idum_orig]
  1493                                   [NOl_eff]
   471                                   [Nl_eff]
  1022    NSIGMA                         [Ntot_cliped & clip_method]
   406560                                [Nglobal_steps]
   7                                     [N_chains]
   5                                     [NEX0s_base = N_base in EX0s-fits]
 0   0   1        0   2.0   9.135E+01    [Clip-Bug, RC-Crash & Burn-In warning-flags, n_censored_weights, wei_nsig_threshold & wei_limit]
     6      5.138      5.117      0.021  [idt_all, wdt_TotTime, wdt_UsrTime & wdt_SysTime (sec)]

## Synthesis Results - Best model ##

 3.07430E+00                             [chi2/Nl_eff]
     3.68169                             [adev (%)]

   119.42838                             [sum-of-x (%)]
 1.90691E-16                             [Flux_tot (units of input spectrum!)]
 6.27868E-12                             [Mini_tot (???)]
 3.15896E-12                             [Mcor_tot (???)]

   1.78                                  [v0_min  (km/s)]
 120.04                                  [vd_min  (km/s)]
-0.9199                                  [AV_min  (mag)]
 0.0000                                  [YAV_min (mag)]

# j     x_j(%)      Mini_j(%)     Mcor_j(%)     age_j(yr)     Z_j      (L/M)_j    YAV?  Mstars   component_j        a/Fe...       SSP_chi2r SSP_adev(%)   SSP_AV   SSP_x(%)
  1     98.3803     2.2458E-01    4.4638E-01    1.000000E+06  0.00400  1.114E-02    0   1.0000   age020_m42            0.0000     1.5807E+01     7.5858   0.4562   122.9450
  2      0.0000     0.0000E+00    0.0000E+00    3.160000E+06  0.00400  4.073E-02    0   0.9999   age045_m42            0.0000     4.3753E+01    13.4863  -0.5862   141.3322
  3      0.0000     0.0000E+00    0.0000E+00    5.010000E+06  0.00400  2.534E-02    0   0.9488   age055_m42            0.0000     3.2196E+01    11.5176  -0.1768   134.1206
  4      0.0000     0.0000E+00    0.0000E+00    1.000000E+07  0.00400  1.271E-02    0   0.8862   age070_m42            0.0000     3.1907E+01    11.6766  -0.8395   137.4396
  5      0.0000     0.0000E+00    0.0000E+00    2.512000E+07  0.00400  5.070E-03    0   0.8174   age090_m42            0.0000     3.4670E+01    12.2369  -1.0000   140.3099
  6      0.0000     0.0000E+00    0.0000E+00    4.000000E+07  0.00400  3.505E-03    0   0.7851   age104_m42            0.0000     4.7856E+01    13.9979  -1.0000   135.4322
  7      0.0000     0.0000E+00    0.0000E+00    1.015200E+08  0.00400  2.268E-03    0   0.7207   age116_m42            0.0000     1.0384E+02    20.2694  -1.0000   141.6618
  8      0.0000     0.0000E+00    0.0000E+00    2.861200E+08  0.00400  1.079E-03    0   0.6613   age125_m42            0.0000     1.4909E+02    21.7660  -1.0000   129.4884
  9      0.0000     0.0000E+00    0.0000E+00    6.405400E+08  0.00400  5.077E-04    0   0.6197   age132_m42            0.0000     1.7563E+02    23.7022  -1.0000   122.7523
 10      0.0000     0.0000E+00    0.0000E+00    9.047900E+08  0.00400  3.535E-04    0   0.6024   age135_m42            0.0000     1.8757E+02    25.2750  -1.0000   114.7948
 11      0.0000     0.0000E+00    0.0000E+00    1.434000E+09  0.00400  1.910E-04    0   0.5716   age139_m42            0.0000     2.1857E+02    28.7676  -1.0000    98.0012
 12      0.0000     0.0000E+00    0.0000E+00    2.500000E+09  0.00400  9.818E-05    0   0.5463   age150_m42            0.0000     2.4355E+02    31.1358  -1.0000    86.4952
 13      0.0000     0.0000E+00    0.0000E+00    5.000000E+09  0.00400  4.718E-05    0   0.5228   age161_m42            0.0000     2.6513E+02    32.6627  -1.0000    79.8952
 14      0.0000     0.0000E+00    0.0000E+00    1.100000E+10  0.00400  2.205E-05    0   0.4980   age185_m42            0.0000     2.9854E+02    34.5563  -1.0000    71.8604
 15      0.0000     0.0000E+00    0.0000E+00    1.300000E+10  0.00400  1.883E-05    0   0.4927   age193_m42            0.0000     3.0204E+02    34.7221  -1.0000    71.3899
 16      0.0013     1.6536E-06    3.2867E-06    1.000000E+06  0.02000  1.989E-02    0   1.0000   age020_m62            0.0000     1.6336E+01     7.7076   0.4255   123.7363
 17      0.0000     0.0000E+00    0.0000E+00    3.160000E+06  0.02000  3.772E-02    0   0.9858   age045_m62            0.0000     2.2845E+01     9.5696   0.2109   128.7126
 18      0.0000     0.0000E+00    0.0000E+00    5.010000E+06  0.02000  3.227E-02    0   0.9342   age055_m62            0.0000     4.4584E+01    13.8778  -0.3978   139.1358
 19      0.0000     0.0000E+00    0.0000E+00    1.000000E+07  0.02000  1.011E-02    0   0.8751   age070_m62            0.0000     1.8506E+01     8.4920  -0.6548   132.9215
 20      0.0000     0.0000E+00    0.0000E+00    2.512000E+07  0.02000  4.206E-03    0   0.8099   age090_m62            0.0000     2.6596E+01    10.5110  -0.8766   135.7001
 21      0.0000     0.0000E+00    0.0000E+00    4.000000E+07  0.02000  3.373E-03    0   0.7799   age104_m62            0.0000     4.8369E+01    14.4329  -1.0000   141.9919
 22      0.0000     0.0000E+00    0.0000E+00    1.015200E+08  0.02000  1.878E-03    0   0.7221   age116_m62            0.0000     9.7455E+01    19.8458  -1.0000   143.9512
 23      0.0000     0.0000E+00    0.0000E+00    2.861200E+08  0.02000  8.869E-04    0   0.6700   age125_m62            0.0000     1.7033E+02    23.8169  -1.0000   134.2019
 24      0.0000     0.0000E+00    0.0000E+00    6.405400E+08  0.02000  3.657E-04    0   0.6322   age132_m62            0.0000     2.1065E+02    26.3650  -1.0000   115.1023
 25      0.0000     0.0000E+00    0.0000E+00    9.047900E+08  0.02000  2.312E-04    0   0.6152   age135_m62            0.0000     2.2556E+02    28.2708  -1.0000   103.0880
 26      0.0000     0.0000E+00    0.0000E+00    1.434000E+09  0.02000  1.168E-04    0   0.5865   age139_m62            0.0000     2.5429E+02    31.4539  -1.0000    87.1793
 27      0.0000     0.0000E+00    0.0000E+00    2.500000E+09  0.02000  5.505E-05    0   0.5610   age150_m62            0.0000     2.9299E+02    34.0882  -1.0000    75.4285
 28      0.0000     0.0000E+00    0.0000E+00    5.000000E+09  0.02000  2.596E-05    0   0.5353   age161_m62            0.0000     3.3359E+02    36.0349  -1.0000    67.3666
 29      0.0000     0.0000E+00    0.0000E+00    1.100000E+10  0.02000  1.169E-05    0   0.5103   age185_m62            0.0000     3.7409E+02    37.6861  -1.0000    60.3981
 30      0.0000     0.0000E+00    0.0000E+00    1.300000E+10  0.02000  9.691E-06    0   0.5047   age193_m62            0.0000     3.7978E+02    37.8912  -1.0000    59.6344
 31      0.0000     0.0000E+00    0.0000E+00    1.000000E+06  0.05000  2.651E-02    0   0.9998   age020_m72            0.0000     1.7193E+01     8.0280   0.3955   124.8501
 32      0.0000     0.0000E+00    0.0000E+00    3.160000E+06  0.05000  4.817E-02    0   0.9577   age045_m72            0.0000     3.2968E+01    11.8356  -0.0558   134.9130
 33      0.0000     0.0000E+00    0.0000E+00    5.010000E+06  0.05000  3.101E-02    0   0.9147   age055_m72            0.0000     3.1536E+01    11.5152  -0.3324   137.1591
 34      0.0000     0.0000E+00    0.0000E+00    1.000000E+07  0.05000  8.954E-03    0   0.8524   age070_m72            0.0000     3.0023E+01    11.2130  -0.1351   135.0351
 35      0.0000     0.0000E+00    0.0000E+00    2.512000E+07  0.05000  4.207E-03    0   0.7902   age090_m72            0.0000     4.7108E+01    14.2416  -0.6228   143.4146
 36      0.0000     0.0000E+00    0.0000E+00    4.000000E+07  0.05000  3.198E-03    0   0.7618   age104_m72            0.0000     6.5135E+01    16.9840  -1.0000   148.5636
 37      0.0000     0.0000E+00    0.0000E+00    1.015200E+08  0.05000  1.716E-03    0   0.7092   age116_m72            0.0000     1.1501E+02    21.5867  -1.0000   146.2919
 38      0.0000     0.0000E+00    0.0000E+00    2.861200E+08  0.05000  7.047E-04    0   0.6618   age125_m72            0.0000     1.8785E+02    24.4745  -1.0000   127.2295
 39      0.0000     0.0000E+00    0.0000E+00    6.405400E+08  0.05000  2.633E-04    0   0.6253   age132_m72            0.0000     2.3117E+02    28.4435  -1.0000   103.2027
 40      0.0000     0.0000E+00    0.0000E+00    9.047900E+08  0.05000  1.484E-04    0   0.6088   age135_m72            0.0000     2.6489E+02    31.9364  -1.0000    85.7633
 41      0.0000     0.0000E+00    0.0000E+00    1.434000E+09  0.05000  7.827E-05    0   0.5847   age139_m72            0.0000     3.0877E+02    34.7885  -1.0000    73.0646
 42      0.0000     0.0000E+00    0.0000E+00    2.500000E+09  0.05000  3.759E-05    0   0.5583   age150_m72            0.0000     3.4711E+02    36.6387  -1.0000    65.2656
 43      0.0000     0.0000E+00    0.0000E+00    5.000000E+09  0.05000  1.548E-05    0   0.5320   age161_m72            0.0000     3.8593E+02    38.1709  -1.0000    57.3698
 44      1.0189     3.9667E+00    3.9972E+00    1.100000E+10  0.05000  6.532E-06    0   0.5070   age185_m72            0.0000     4.2163E+02    39.3588  -1.0000    50.3720
 45     20.0279     9.5809E+01    9.5556E+01    1.300000E+10  0.05000  5.316E-06    0   0.5018   age193_m72            0.0000     4.3286E+02    39.7098  -1.0000    48.3760


## Synthesis Results - Average & Chains ##

# j      x_j: min, <> & last-chain-values for 1 ...  7 chains
  1     98.3803     95.0984     96.0630     95.4934     95.5333     95.1606     95.6784     97.4249     95.2599
  2      0.0000      0.0285      0.0000      0.0000      0.0000      0.0923      0.0000      0.0000      0.0000
  3      0.0000      0.0473      0.0000      0.0000      0.0000      0.0000      0.0000      0.0000      0.0000
  4      0.0000      0.0177      0.0000      0.0000      0.0000      0.0000      0.0047      0.0000      0.0000
  5      0.0000      0.0263      0.0949      0.0000      0.0000      0.0000      0.0000      0.0000      0.0000
  6      0.0000      0.0149      0.0000      0.0000      0.0000      0.0000      0.0000      0.0000      0.0000
  7      0.0000      0.0030      0.0000      0.0000      0.0000      0.0000      0.0000      0.0000      0.0000
  8      0.0000      0.0039      0.0000      0.0000      0.0000      0.0000      0.0000      0.0000      0.0000
  9      0.0000      0.0061      0.0000      0.0000      0.0000      0.0000      0.0000      0.0000      0.0000
 10      0.0000      0.0083      0.0000      0.0000      0.0000      0.0000      0.0000      0.0721      0.0000
 11      0.0000      0.0172      0.0000      0.0000      0.0000      0.0000      0.0000      0.0000      0.0000
 12      0.0000      0.0125      0.0000      0.0000      0.0000      0.0000      0.0344      0.0000      0.0000
 13      0.0000      0.0255      0.0020      0.0000      0.0000      0.0000      0.0400      0.0000      0.0000
 14      0.0000      0.0232      0.0000      0.0000      0.0000      0.0000      0.0000      0.0000      0.0000
 15      0.0000      0.0213      0.0000      0.0000      0.0000      0.0000      0.0000      0.0000      0.0000
 16      0.0013      0.9507      0.0000      1.1810      1.7797      1.0737      0.5114      0.0546      1.7323
 17      0.0000      0.1596      0.0000      0.0000      0.0000      0.0763      0.0000      0.0000      0.0000
 18      0.0000      0.0275      0.0000      0.0000      0.0000      0.0000      0.0000      0.0000      0.0000
 19      0.0000      0.0932      0.0000      0.0000      0.0000      0.0574      0.0000      0.0000      0.0000
 20      0.0000      0.0384      0.0000      0.0362      0.0000      0.0000      0.0000      0.0021      0.0000
 21      0.0000      0.0078      0.0000      0.0000      0.0000      0.0000      0.0000      0.0000      0.0000
 22      0.0000      0.0066      0.0000      0.0000      0.0000      0.0000      0.0000      0.0000      0.0143
 23      0.0000      0.0032      0.0000      0.0000      0.0000      0.0000      0.0000      0.0000      0.0000
 24      0.0000      0.0063      0.0000      0.0000      0.0000      0.0000      0.0000      0.0000      0.0000
 25      0.0000      0.0032      0.0000      0.0000      0.0000      0.0000      0.0000      0.0000      0.0000
 26      0.0000      0.0147      0.0000      0.0000      0.0000      0.0000      0.0000      0.0000      0.0000
 27      0.0000      0.0261      0.0000      0.0000      0.0000      0.0000      0.0000      0.0000      0.0582
 28      0.0000      0.0231      0.0000      0.0000      0.0000      0.0000      0.0000      0.0000      0.0000
 29      0.0000      0.1011      0.0000      0.0020      0.0000      0.1101      0.0000      0.0000      0.0921
 30      0.0000      0.0749      0.0000      0.0000      0.1155      0.0000      0.0000      0.0000      0.0000
 31      0.0000      0.7222      1.0137      0.5368      0.2248      1.3909      1.1894      0.0000      0.6032
 32      0.0000      0.0610      0.0000      0.0143      0.0000      0.0000      0.0000      0.1400      0.0000
 33      0.0000      0.0374      0.1866      0.0000      0.0000      0.0000      0.0000      0.0000      0.0017
 34      0.0000      0.0316      0.0000      0.0000      0.0000      0.0000      0.0000      0.0000      0.0000
 35      0.0000      0.0184      0.0000      0.0124      0.0000      0.0000      0.0000      0.0000      0.0000
 36      0.0000      0.0073      0.1114      0.0000      0.0000      0.0053      0.0000      0.0000      0.0000
 37      0.0000      0.0093      0.0000      0.0000      0.0000      0.0000      0.0000      0.0000      0.0000
 38      0.0000      0.0056      0.0000      0.0000      0.0000      0.0000      0.0000      0.0000      0.0000
 39      0.0000      0.0038      0.0012      0.0066      0.0000      0.0000      0.0000      0.0000      0.0000
 40      0.0000      0.0111      0.0000      0.0000      0.0000      0.0000      0.0033      0.0000      0.0000
 41      0.0000      0.0172      0.0000      0.0000      0.0000      0.0000      0.0000      0.0000      0.0000
 42      0.0000      0.0492      0.0000      0.0000      0.0000      0.0000      0.0000      0.0751      0.0532
 43      0.0000      0.2667      0.0000      0.0000      0.0711      0.0000      0.5008      0.0000      0.0000
 44      1.0189      3.2621      3.0370      3.5956      3.3579      3.6599      3.2290      3.1690      3.2080
 45     20.0279     18.2668     19.0804     18.6034     18.4643     18.0277     18.4340     18.7448     18.4741

# j      m_j: min, <> & last-chain-values for 1 ...  7 chains
  1  4.4638E-01  4.2537E-01  4.2156E-01  4.1940E-01  4.2440E-01  4.2727E-01  4.2577E-01  4.3180E-01  4.2608E-01
  2  0.0000E+00  3.4923E-05  0.0000E+00  0.0000E+00  0.0000E+00  1.1334E-04  0.0000E+00  0.0000E+00  0.0000E+00
  3  0.0000E+00  8.8260E-05  0.0000E+00  0.0000E+00  0.0000E+00  0.0000E+00  0.0000E+00  0.0000E+00  0.0000E+00
  4  0.0000E+00  6.1326E-05  0.0000E+00  0.0000E+00  0.0000E+00  0.0000E+00  1.6282E-05  0.0000E+00  0.0000E+00
  5  0.0000E+00  2.1130E-04  7.4783E-04  0.0000E+00  0.0000E+00  0.0000E+00  0.0000E+00  0.0000E+00  0.0000E+00
  6  0.0000E+00  1.6649E-04  0.0000E+00  0.0000E+00  0.0000E+00  0.0000E+00  0.0000E+00  0.0000E+00  0.0000E+00
  7  0.0000E+00  4.7515E-05  0.0000E+00  0.0000E+00  0.0000E+00  0.0000E+00  0.0000E+00  0.0000E+00  0.0000E+00
  8  0.0000E+00  1.2016E-04  0.0000E+00  0.0000E+00  0.0000E+00  0.0000E+00  0.0000E+00  0.0000E+00  0.0000E+00
  9  0.0000E+00  3.6897E-04  0.0000E+00  0.0000E+00  0.0000E+00  0.0000E+00  0.0000E+00  0.0000E+00  0.0000E+00
 10  0.0000E+00  7.0374E-04  0.0000E+00  0.0000E+00  0.0000E+00  0.0000E+00  0.0000E+00  6.0628E-03  0.0000E+00
 11  0.0000E+00  2.5646E-03  0.0000E+00  0.0000E+00  0.0000E+00  0.0000E+00  0.0000E+00  0.0000E+00  0.0000E+00
 12  0.0000E+00  3.4712E-03  0.0000E+00  0.0000E+00  0.0000E+00  0.0000E+00  9.4939E-03  0.0000E+00  0.0000E+00
 13  0.0000E+00  1.4084E-02  1.0914E-03  0.0000E+00  0.0000E+00  0.0000E+00  2.1971E-02  0.0000E+00  0.0000E+00
 14  0.0000E+00  2.6107E-02  0.0000E+00  0.0000E+00  0.0000E+00  0.0000E+00  0.0000E+00  0.0000E+00  0.0000E+00
 15  0.0000E+00  2.7778E-02  0.0000E+00  0.0000E+00  0.0000E+00  0.0000E+00  0.0000E+00  0.0000E+00  0.0000E+00
 16  3.2867E-06  2.3817E-03  0.0000E+00  2.9051E-03  4.4282E-03  2.7000E-03  1.2747E-03  1.3549E-04  4.3396E-03
 17  0.0000E+00  2.0788E-04  0.0000E+00  0.0000E+00  0.0000E+00  9.9748E-05  0.0000E+00  0.0000E+00  0.0000E+00
 18  0.0000E+00  3.9657E-05  0.0000E+00  0.0000E+00  0.0000E+00  0.0000E+00  0.0000E+00  0.0000E+00  0.0000E+00
 19  0.0000E+00  4.0184E-04  0.0000E+00  0.0000E+00  0.0000E+00  2.4868E-04  0.0000E+00  0.0000E+00  0.0000E+00
 20  0.0000E+00  3.6890E-04  0.0000E+00  3.4098E-04  0.0000E+00  0.0000E+00  0.0000E+00  1.9726E-05  0.0000E+00
 21  0.0000E+00  9.0141E-05  0.0000E+00  0.0000E+00  0.0000E+00  0.0000E+00  0.0000E+00  0.0000E+00  0.0000E+00
 22  0.0000E+00  1.2563E-04  0.0000E+00  0.0000E+00  0.0000E+00  0.0000E+00  0.0000E+00  0.0000E+00  2.7433E-04
 23  0.0000E+00  1.2146E-04  0.0000E+00  0.0000E+00  0.0000E+00  0.0000E+00  0.0000E+00  0.0000E+00  0.0000E+00
 24  0.0000E+00  5.4665E-04  0.0000E+00  0.0000E+00  0.0000E+00  0.0000E+00  0.0000E+00  0.0000E+00  0.0000E+00
 25  0.0000E+00  4.3032E-04  0.0000E+00  0.0000E+00  0.0000E+00  0.0000E+00  0.0000E+00  0.0000E+00  0.0000E+00
 26  0.0000E+00  3.6729E-03  0.0000E+00  0.0000E+00  0.0000E+00  0.0000E+00  0.0000E+00  0.0000E+00  0.0000E+00
 27  0.0000E+00  1.3231E-02  0.0000E+00  0.0000E+00  0.0000E+00  0.0000E+00  0.0000E+00  0.0000E+00  2.9552E-02
 28  0.0000E+00  2.3785E-02  0.0000E+00  0.0000E+00  0.0000E+00  0.0000E+00  0.0000E+00  0.0000E+00  0.0000E+00
 29  0.0000E+00  2.1995E-01  0.0000E+00  4.2770E-03  0.0000E+00  2.4040E-01  0.0000E+00  0.0000E+00  2.0040E-01
 30  0.0000E+00  1.9433E-01  0.0000E+00  0.0000E+00  2.9762E-01  0.0000E+00  0.0000E+00  0.0000E+00  0.0000E+00
 31  0.0000E+00  1.3573E-03  1.8689E-03  9.9049E-04  4.1949E-04  2.6238E-03  2.2238E-03  0.0000E+00  1.1335E-03
 32  0.0000E+00  6.0470E-05  0.0000E+00  1.3905E-05  0.0000E+00  0.0000E+00  0.0000E+00  1.3741E-04  0.0000E+00
 33  0.0000E+00  5.4941E-05  2.6903E-04  0.0000E+00  0.0000E+00  0.0000E+00  0.0000E+00  0.0000E+00  2.5437E-06
 34  0.0000E+00  1.5011E-04  0.0000E+00  0.0000E+00  0.0000E+00  0.0000E+00  0.0000E+00  0.0000E+00  0.0000E+00
 35  0.0000E+00  1.7210E-04  0.0000E+00  1.1395E-04  0.0000E+00  0.0000E+00  0.0000E+00  0.0000E+00  0.0000E+00
 36  0.0000E+00  8.6571E-05  1.2976E-03  0.0000E+00  0.0000E+00  6.2837E-05  0.0000E+00  0.0000E+00  0.0000E+00
 37  0.0000E+00  1.9165E-04  0.0000E+00  0.0000E+00  0.0000E+00  0.0000E+00  0.0000E+00  0.0000E+00  0.0000E+00
 38  0.0000E+00  2.6042E-04  0.0000E+00  0.0000E+00  0.0000E+00  0.0000E+00  0.0000E+00  0.0000E+00  0.0000E+00
 39  0.0000E+00  4.4571E-04  1.4029E-04  7.6226E-04  0.0000E+00  0.0000E+00  0.0000E+00  0.0000E+00  0.0000E+00
 40  0.0000E+00  2.2698E-03  0.0000E+00  0.0000E+00  0.0000E+00  0.0000E+00  6.7137E-04  0.0000E+00  0.0000E+00
 41  0.0000E+00  6.3903E-03  0.0000E+00  0.0000E+00  0.0000E+00  0.0000E+00  0.0000E+00  0.0000E+00  0.0000E+00
 42  0.0000E+00  3.6424E-02  0.0000E+00  0.0000E+00  0.0000E+00  0.0000E+00  0.0000E+00  5.5041E-02  3.9397E-02
 43  0.0000E+00  4.5667E-01  0.0000E+00  0.0000E+00  1.2098E-01  0.0000E+00  8.5324E-01  0.0000E+00  0.0000E+00
 44  3.9972E+00  1.2616E+01  1.1524E+01  1.3654E+01  1.2898E+01  1.4209E+01  1.2425E+01  1.2144E+01  1.2407E+01
 45  9.5556E+01  8.5918E+01  8.8049E+01  8.5917E+01  8.6254E+01  8.5117E+01  8.6261E+01  8.7362E+01  8.6892E+01

# AV, chi2 & Mass for <> & i_chain = 1 ...  7 solutions
AV      -0.9199     -0.9755     -0.9785     -0.9783     -0.9664     -0.9572     -0.9763     -0.9697     -0.9591
chi2 3.0743E+00  3.1260E+00  3.1101E+00  3.0996E+00  3.0941E+00  3.1004E+00  3.1057E+00  3.1016E+00  3.0948E+00
Mass 3.1590E-12  2.9738E-12  3.0188E-12  3.0172E-12  3.0308E-12  3.0361E-12  2.9859E-12  3.0245E-12  3.0400E-12
   1.78                                  [v0_min (km/s) before EX0s...]
 120.04                                  [vd_min (km/s) before EX0s...]


## Synthetic spectrum (Best Model) ##l_obs f_obs f_syn wei
 2201    [Nl_obs]
 3100.00    2.72400   2.98885    7.362
 3101.00    2.67288   2.97487    7.503
 3102.00    2.65242   2.96579   -1.000
 3103.00    2.61292   2.96157   -1.000
 3104.00    2.59160   2.95950   -1.000
 3105.00    2.59238   2.95792   -1.000
 3106.00    2.60866   2.95641   -1.000
 3107.00    2.66142   2.95490   -1.000
 3108.00    2.64452   2.95339   -1.000
 3109.00    2.72800   2.95188    8.055
 3110.00    2.68565   2.95037    8.175
 3111.00    2.61699   2.94886   -1.000
 3112.00    2.63618   2.94735   -1.000
 3113.00    2.55962   2.94584   -1.000
 3114.00    2.56352   2.94433   -1.000
 3115.00    2.57307   2.94282   -1.000
 3116.00    2.50098   2.94121   -1.000
 3117.00    2.49342   2.93880   -1.000
 3118.00    2.51622   2.93292   -1.000
 3119.00    2.49544   2.91912   -1.000
 3120.00    2.55022   2.89706   -1.000
 3121.00    2.57977   2.87483   -1.000
 3122.00    2.61604   2.86073    8.950
 3123.00    2.58761   2.85468   -1.000
 3124.00    2.60897   2.85225    9.054
 3125.00    2.67588   2.85068    8.995
 3126.00    2.60105   2.84921   -1.000
 3127.00    2.63331   2.84775    9.165
 3128.00    2.64933   2.84630    9.173
 3129.00    2.65276   2.84484    9.206
 3130.00    2.66594   2.84339    9.260
 3131.00    2.63101   2.84194    9.388
 3132.00    2.66565   2.84049    9.406
 3133.00    2.67584   2.83904    9.469
 3134.00    2.70842   2.83759    9.469
 3135.00    2.64539   2.83614    9.648
 3136.00    2.58473   2.83462   -1.000
 3137.00    2.60727   2.83254    9.861
 3138.00    2.65244   2.82805    9.838
 3139.00    2.56978   2.81810   -1.000
 3140.00    2.54298   2.80252   -1.000
 3141.00    2.57301   2.78684   10.186
 3142.00    2.58444   2.77672   10.296
 3143.00    2.59205   2.77211   10.369
 3144.00    2.65215   2.77002   10.323
 3145.00    2.67835   2.76853   10.374
 3146.00    2.68594   2.76712   10.434
 3147.00    2.67719   2.76573   10.528
 3148.00    2.65659   2.76433   10.646
 3149.00    2.64638   2.76294   10.794
 3150.00    2.63889   2.76155   10.902
 3151.00    2.60039   2.76016   11.002
 3152.00    2.65118   2.75877   10.947
 3153.00    2.59678   2.75739   11.131
 3154.00    2.59301   2.75601   11.227
 3155.00    2.61038   2.75462   11.260
 3156.00    2.59472   2.75317   11.375
 3157.00    2.54782   2.75116   -1.000
 3158.00    2.50206   2.74680   -1.000
 3159.00    2.48792   2.73716   -1.000
 3160.00    2.52904   2.72211   -1.000
 3161.00    2.59511   2.70700   11.662
 3162.00    2.63448   2.69721   11.636
 3163.00    2.66523   2.69274   11.638
 3164.00    2.63930   2.69071   11.726
 3165.00    2.61430   2.68929   11.849
 3166.00    2.60182   2.68795   11.900
 3167.00    2.61750   2.68663   11.907
 3168.00    2.63094   2.68531   11.920
 3169.00    2.66959   2.68399   11.842
 3170.00    2.69755   2.68267   11.841
 3171.00    2.68252   2.68136   11.930
 3172.00    2.67816   2.68005   11.986
 3173.00    2.65759   2.67874   12.034
 3174.00    2.65099   2.67743   12.089
 3175.00    2.62654   2.67612   12.204
 3176.00    2.58973   2.67469   12.350
 3177.00    2.56230   2.67244   12.424
 3178.00    2.59052   2.66678   12.402
 3179.00    2.57075   2.65342   12.453
 3180.00    2.56762   2.63222   12.517
 3181.00    2.55662   2.61098   12.576
 3182.00    2.60165   2.59743   12.543
 3183.00    2.63736   2.59156   12.502
 3184.00    2.71205   2.58927   12.358
 3185.00    3.02649   2.58789   -1.000
 3186.00    4.10207   2.58664   -1.000
 3187.00    4.90316   2.58541   -1.000
 3188.00    4.92922   2.58418   -1.000
 3189.00    4.50337   2.58295   -1.000
 3190.00    3.52414   2.58172   -1.000
 3191.00    2.84115   2.58050   12.567
 3192.00    2.67868   2.57928   12.988
 3193.00    2.63710   2.57807   13.142
 3194.00    2.60674   2.57685   13.305
 3195.00    2.59953   2.57563   13.422
 3196.00    2.50395   2.57432   13.728
 3197.00    2.44734   2.57230   13.959
 3198.00    2.44262   2.56749   14.058
 3199.00    2.43591   2.55641   14.180
 3200.00    2.38941   2.53897   -1.000
 3201.00    2.32704   2.52150   -1.000
 3202.00    2.32576   2.51027   -1.000
 3203.00    2.37050   2.50528   14.670
 3204.00    2.38324   2.50324   14.711
 3205.00    2.41398   2.50196   14.698
 3206.00    2.48244   2.50080   14.564
 3207.00    2.50361   2.49966   14.522
 3208.00    2.53714   2.49851   14.405
 3209.00    2.59711   2.49737   14.217
 3210.00    2.65266   2.49624   14.062
 3211.00    2.67129   2.49510   13.982
 3212.00    2.73128   2.49397   13.825
 3213.00    2.74782   2.49285   13.812
 3214.00    2.68230   2.49172   13.951
 3215.00    2.71668   2.49059   13.837
 3216.00    2.77546   2.48939   -1.000
 3217.00    2.75951   2.48768   13.660
 3218.00    2.78921   2.48399   -1.000
 3219.00    2.83634   2.47592   -1.000
 3220.00    2.77939   2.46339   -1.000
 3221.00    2.70522   2.45083   13.771
 3222.00    2.70153   2.44265   13.853
 3223.00    2.65530   2.43884   14.040
 3224.00    2.63724   2.43712   14.071
 3225.00    2.64307   2.43596   14.062
 3226.00    2.65155   2.43488   14.082
 3227.00    2.61160   2.43382   14.255
 3228.00    2.55463   2.43275   14.475
 3229.00    2.57998   2.43169   14.488
 3230.00    2.57700   2.43064   14.563
 3231.00    2.56232   2.42959   14.642
 3232.00    2.59504   2.42854   14.634
 3233.00    2.60299   2.42749   14.667
 3234.00    2.61044   2.42644   14.722
 3235.00    2.58435   2.42540   14.850
 3236.00    2.56376   2.42432   14.899
 3237.00    2.62854   2.42297   14.728
 3238.00    2.60931   2.42059   14.806
 3239.00    2.58424   2.41598   14.888
 3240.00    2.60855   2.40909   14.793
 3241.00    2.58294   2.40219   14.873
 3242.00    2.57819   2.39753   14.873
 3243.00    2.56199   2.39511   14.913
 3244.00    2.61555   2.39376   14.772
 3245.00    2.63448   2.39271   14.721
 3246.00    2.66123   2.39171   -1.000
 3247.00    2.66525   2.39071   -1.000
 3248.00    2.63348   2.38972   14.675
 3249.00    2.61524   2.38873   14.738
 3250.00    2.61078   2.38774   14.769
 3251.00    2.61883   2.38676   14.764
 3252.00    2.59037   2.38578   14.893
 3253.00    2.58662   2.38481   14.868
 3254.00    2.61477   2.38383   14.876
 3255.00    2.60608   2.38285   14.957
 3256.00    2.61613   2.38181   14.956
 3257.00    2.59676   2.38033   15.092
 3258.00    2.61462   2.37719   15.107
 3259.00    2.59324   2.37051   15.256
 3260.00    2.59484   2.36020   15.344
 3261.00    2.60173   2.34987   -1.000
 3262.00    2.62753   2.34310   -1.000
 3263.00    2.63515   2.33987   -1.000
 3264.00    2.60155   2.33838   -1.000
 3265.00    2.61537   2.33736   -1.000
 3266.00    2.64461   2.33643   -1.000
 3267.00    2.66289   2.33551   -1.000
 3268.00    2.67473   2.33459   -1.000
 3269.00    2.69990   2.33368   -1.000
 3270.00    2.68516   2.33277   -1.000
 3271.00    2.64135   2.33186   -1.000
 3272.00    2.67143   2.33095   -1.000
 3273.00    2.70551   2.33005   -1.000
 3274.00    2.67265   2.32915   -1.000
 3275.00    2.65715   2.32824   -1.000
 3276.00    2.67658   2.32725   -1.000
 3277.00    2.68505   2.32573   -1.000
 3278.00    2.66450   2.32224   -1.000
 3279.00    2.66356   2.31459   -1.000
 3280.00    2.65595   2.30267   -1.000
 3281.00    2.59993   2.29073   -1.000
 3282.00    2.57756   2.28296   -1.000
 3283.00    2.57493   2.27936   -1.000
 3284.00    2.60369   2.27781   -1.000
 3285.00    2.61697   2.27685   -1.000
 3286.00    2.66186   2.27600   -1.000
 3287.00    2.67563   2.27515   -1.000
 3288.00    2.68463   2.27430   -1.000
 3289.00    2.66329   2.27346   -1.000
 3290.00    2.65873   2.27262   -1.000
 3291.00    2.66833   2.27179   -1.000
 3292.00    2.67759   2.27095   -1.000
 3293.00    2.67822   2.27012   -1.000
 3294.00    2.67999   2.26930   -1.000
 3295.00    2.72811   2.26846   -1.000
 3296.00    2.75795   2.26750   -1.000
 3297.00    2.76052   2.26583   -1.000
 3298.00    2.71824   2.26156   -1.000
 3299.00    2.65398   2.25185   -1.000
 3300.00    2.64201   2.23657   -1.000
 3301.00    2.64038   2.22126   -1.000
 3302.00    2.64437   2.21140   -1.000
 3303.00    2.62695   2.20697   -1.000
 3304.00    2.62941   2.20526   -1.000
 3305.00    2.59640   2.20433   -1.000
 3306.00    2.61727   2.20354   -1.000
 3307.00    2.65781   2.20277   -1.000
 3308.00    2.67863   2.20200   -1.000
 3309.00    2.65882   2.20123   -1.000
 3310.00    2.63211   2.20047   -1.000
 3311.00    2.64058   2.19970   -1.000
 3312.00    2.61777   2.19886   -1.000
 3313.00    2.57483   2.19766   -1.000
 3314.00    2.60208   2.19513   -1.000
 3315.00    2.61016   2.18984   -1.000
 3316.00    2.62047   2.18173   -1.000
 3317.00    2.64973   2.17361   -1.000
 3318.00    2.66874   2.16825   -1.000
 3319.00    2.67673   2.16569   -1.000
 3320.00    2.69362   2.16477   -1.000
 3321.00    2.72470   2.16495   -1.000
 3322.00    2.68880   2.16607   -1.000
 3323.00    2.69122   2.16672   -1.000
 3324.00    2.63756   2.16437   -1.000
 3325.00    2.64049   2.15822   -1.000
 3326.00    2.64143   2.14898   -1.000
 3327.00    2.66732   2.13930   -1.000
 3328.00    2.69612   2.13237   -1.000
 3329.00    2.69625   2.12971   -1.000
 3330.00    2.65966   2.12930   -1.000
 3331.00    2.65445   2.12703   -1.000
 3332.00    2.70559   2.11989   -1.000
 3333.00    2.74395   2.10788   -1.000
 3334.00    2.74724   2.09357   -1.000
 3335.00    2.72309   2.07994   -1.000
 3336.00    2.71334   2.06918   -1.000
 3337.00    2.71158   2.06181   -1.000
 3338.00    2.67927   2.05641   -1.000
 3339.00    2.67440   2.05205   -1.000
 3340.00    2.68639   2.05031   -1.000
 3341.00    2.68267   2.05451   -1.000
 3342.00    2.67853   2.06637   -1.000
 3343.00    2.70458   2.08394   -1.000
 3344.00    2.70666   2.10191   -1.000
 3345.00    2.70997   2.11577   -1.000
 3346.00    2.69031   2.12217   -1.000
 3347.00    2.66083   2.11766   -1.000
 3348.00    2.67099   2.10041   -1.000
 3349.00    2.68310   2.07379   -1.000
 3350.00    2.66886   2.04733   -1.000
 3351.00    2.67272   2.03139   -1.000
 3352.00    2.75255   2.02614   -1.000
 3353.00    2.82333   2.02491   -1.000
 3354.00    2.82506   2.02310   -1.000
 3355.00    2.82879   2.02121   -1.000
 3356.00    2.78939   2.02064   -1.000
 3357.00    2.70820   2.01979   -1.000
 3358.00    2.66649   2.01637   -1.000
 3359.00    2.67108   2.01100   -1.000
 3360.00    2.67696   2.00701   -1.000
 3361.00    2.70892   2.00627   -1.000
 3362.00    2.69444   2.00762   -1.000
 3363.00    2.65933   2.00736   -1.000
 3364.00    2.65483   2.00191   -1.000
 3365.00    2.66770   1.99001   -1.000
 3366.00    2.66874   1.97451   -1.000
 3367.00    2.64140   1.96065   -1.000
 3368.00    2.67511   1.95269   -1.000
 3369.00    2.69690   1.95137   -1.000
 3370.00    2.67342   1.95295   -1.000
 3371.00    2.69567   1.95276   -1.000
 3372.00    2.67973   1.95133   -1.000
 3373.00    2.64798   1.95335   -1.000
 3374.00    2.64126   1.96070   -1.000
 3375.00    2.64288   1.96928   -1.000
 3376.00    2.64887   1.97228   -1.000
 3377.00    2.67416   1.96801   -1.000
 3378.00    2.63444   1.96184   -1.000
 3379.00    2.59545   1.96000   -1.000
 3380.00    2.61391   1.96465   -1.000
 3381.00    2.64012   1.97296   -1.000
 3382.00    2.60278   1.98096   -1.000
 3383.00    2.56888   1.98678   -1.000
 3384.00    2.58015   1.99126   -1.000
 3385.00    2.60528   1.99593   -1.000
 3386.00    2.63764   1.99965   -1.000
 3387.00    2.65503   2.00028   -1.000
 3388.00    2.65370   1.99671   -1.000
 3389.00    2.69315   1.99010   -1.000
 3390.00    2.71126   1.98376   -1.000
 3391.00    2.71537   1.98060   -1.000
 3392.00    2.70912   1.98228   -1.000
 3393.00    2.69903   1.98821   -1.000
 3394.00    2.65887   1.99507   -1.000
 3395.00    2.68846   1.99719   -1.000
 3396.00    2.69059   1.99119   -1.000
 3397.00    2.72103   1.97791   -1.000
 3398.00    2.71884   1.96066   -1.000
 3399.00    2.71854   1.94374   -1.000
 3400.00    2.73834   1.93166   -1.000
 3401.00    2.72373   1.92437   -1.000
 3402.00    2.71164   1.91861   -1.000
 3403.00    2.71336   1.91325   -1.000
 3404.00    2.67778   1.90868   -1.000
 3405.00    2.66525   1.90479   -1.000
 3406.00    2.71672   1.90168   -1.000
 3407.00    2.72370   1.90052   -1.000
 3408.00    2.69069   1.90132   -1.000
 3409.00    2.71655   1.90208   -1.000
 3410.00    2.69052   1.90001   -1.000
 3411.00    2.68535   1.89478   -1.000
 3412.00    2.69099   1.89045   -1.000
 3413.00    2.70033   1.89007   -1.000
 3414.00    2.69360   1.89380   -1.000
 3415.00    2.69307   1.89987   -1.000
 3416.00    2.71358   1.90664   -1.000
 3417.00    2.72410   1.91353   -1.000
 3418.00    2.72733   1.91959   -1.000
 3419.00    2.72400   1.92382   -1.000
 3420.00    2.71700   1.92528   -1.000
 3421.00    2.71342   1.92389   -1.000
 3422.00    2.71115   1.92054   -1.000
 3423.00    2.71255   1.91678   -1.000
 3424.00    2.67074   1.91351   -1.000
 3425.00    2.65609   1.91143   -1.000
 3426.00    2.66726   1.91152   -1.000
 3427.00    2.63070   1.91401   -1.000
 3428.00    2.63119   1.91729   -1.000
 3429.00    2.63690   1.91798   -1.000
 3430.00    2.66010   1.91407   -1.000
 3431.00    2.65500   1.90767   -1.000
 3432.00    2.63486   1.90194   -1.000
 3433.00    2.59504   1.89933   -1.000
 3434.00    2.62416   1.89961   -1.000
 3435.00    2.64857   1.89990   -1.000
 3436.00    2.62605   1.89661   -1.000
 3437.00    2.62931   1.88760   -1.000
 3438.00    2.63269   1.87287   -1.000
 3439.00    2.59638   1.85471   -1.000
 3440.00    2.60449   1.83758   -1.000
 3441.00    2.62579   1.82692   -1.000
 3442.00    2.61077   1.82501   -1.000
 3443.00    2.60745   1.82910   -1.000
 3444.00    2.63529   1.83339   -1.000
 3445.00    2.70148   1.83509   -1.000
 3446.00    2.78483   1.83683   -1.000
 3447.00    2.79527   1.84117   -1.000
 3448.00    2.78093   1.84659   -1.000
 3449.00    2.71275   1.84680   -1.000
 3450.00    2.64349   1.83770   -1.000
 3451.00    2.62399   1.82378   -1.000
 3452.00    2.63398   1.81184   -1.000
 3453.00    2.66946   1.80572   -1.000
 3454.00    2.65314   1.80437   -1.000
 3455.00    2.61340   1.80412   -1.000
 3456.00    2.61713   1.80191   -1.000
 3457.00    2.61651   1.79635   -1.000
 3458.00    2.63669   1.78850   -1.000
 3459.00    2.63603   1.78167   -1.000
 3460.00    2.65781   1.77920   -1.000
 3461.00    2.64846   1.78344   -1.000
 3462.00    2.61944   1.79384   -1.000
 3463.00    2.62585   1.80527   -1.000
 3464.00    2.64876   1.81092   -1.000
 3465.00    2.65003   1.81225   -1.000
 3466.00    2.67715   1.81210   -1.000
 3467.00    2.64595   1.81182   -1.000
 3468.00    2.64544   1.81161   -1.000
 3469.00    2.66038   1.81063   -1.000
 3470.00    2.68876   1.80704   -1.000
 3471.00    2.68624   1.79994   -1.000
 3472.00    2.64995   1.79200   -1.000
 3473.00    2.66297   1.78455   -1.000
 3474.00    2.66325   1.77622   -1.000
 3475.00    2.63679   1.76595   -1.000
 3476.00    2.65769   1.75383   -1.000
 3477.00    2.70431   1.74126   -1.000
 3478.00    2.69430   1.73200   -1.000
 3479.00    2.70335   1.72921   -1.000
 3480.00    2.68810   1.73182   -1.000
 3481.00    2.67246   1.73440   -1.000
 3482.00    2.66260   1.73316   -1.000
 3483.00    2.67047   1.73164   -1.000
 3484.00    2.65955   1.73636   -1.000
 3485.00    2.67409   1.74854   -1.000
 3486.00    2.71535   1.76290   -1.000
 3487.00    2.69985   1.77418   -1.000
 3488.00    2.67036   1.77908   -1.000
 3489.00    2.65755   1.77700   -1.000
 3490.00    2.65908   1.77190   -1.000
 3491.00    2.65148   1.76968   -1.000
 3492.00    2.64316   1.77202   -1.000
 3493.00    2.62725   1.77471   -1.000
 3494.00    2.61700   1.77380   -1.000
 3495.00    2.63351   1.76899   -1.000
 3496.00    2.66116   1.76416   -1.000
 3497.00    2.65275   1.76330   -1.000
 3498.00    2.65463   1.76518   -1.000
 3499.00    2.64507   1.76494   -1.000
 3500.00    2.62611   1.75986    0.000
 3501.00    2.60658   1.75304    0.000
 3502.00    2.62011   1.74854    0.000
 3503.00    2.59076   1.74498    0.000
 3504.00    2.59127   1.73882    0.000
 3505.00    2.62026   1.73042    0.000
 3506.00    2.63893   1.72368    0.000
 3507.00    2.60526   1.72047    0.000
 3508.00    2.60887   1.71905    0.000
 3509.00    2.61623   1.71659    0.000
 3510.00    2.67617   1.71214    0.000
 3511.00    2.69780   1.70607    0.000
 3512.00    2.66015   1.69992    0.000
 3513.00    2.64561   1.69617    0.000
 3514.00    2.60482   1.69709    0.000
 3515.00    2.60519   1.70217    0.000
 3516.00    2.60314   1.70877    0.000
 3517.00    2.58921   1.71339    0.000
 3518.00    2.60203   1.71447    0.000
 3519.00    2.60536   1.71132    0.000
 3520.00    2.61256   1.70442    0.000
 3521.00    2.61152   1.69535    0.000
 3522.00    2.62357   1.68663    0.000
 3523.00    2.63140   1.68000    0.000
 3524.00    2.62238   1.67585    0.000
 3525.00    2.62250   1.67387    0.000
 3526.00    2.62694   1.67578    0.000
 3527.00    2.67839   1.68179    0.000
 3528.00    2.75559   1.69027    0.000
 3529.00    2.79906   1.69857    0.000
 3530.00    2.79447   1.70478    0.000
 3531.00    2.79223   1.70827    0.000
 3532.00    2.74198   1.70882    0.000
 3533.00    2.69418   1.70643    0.000
 3534.00    2.69230   1.70255    0.000
 3535.00    2.68461   1.69877    0.000
 3536.00    2.66115   1.69517    0.000
 3537.00    2.65409   1.69186    0.000
 3538.00    2.66901   1.69034    0.000
 3539.00    2.65928   1.69070    0.000
 3540.00    2.67854   1.69210    0.000
 3541.00    2.67821   1.69294    0.000
 3542.00    2.65119   1.69295    0.000
 3543.00    2.67403   1.69307    0.000
 3544.00    2.67757   1.69360    0.000
 3545.00    2.68574   1.69368    0.000
 3546.00    2.68488   1.69306    0.000
 3547.00    2.69893   1.69258    0.000
 3548.00    2.68402   1.69162    0.000
 3549.00    2.66051   1.68902    0.000
 3550.00    2.65779   1.68478    0.000
 3551.00    2.67941   1.68058    0.000
 3552.00    2.78923   1.67752    0.000
 3553.00    2.85405   1.67465    0.000
 3554.00    2.84499   1.67110    0.000
 3555.00    2.80279   1.66734    0.000
 3556.00    2.70539   1.66457    0.000
 3557.00    2.66418   1.66354    0.000
 3558.00    2.65707   1.66330    0.000
 3559.00    2.66332   1.66333    0.000
 3560.00    2.68215   1.66400    0.000
 3561.00    2.70176   1.66504    0.000
 3562.00    2.67724   1.66403    0.000
 3563.00    2.65139   1.65854    0.000
 3564.00    2.66082   1.64992    0.000
 3565.00    2.68036   1.64178    0.000
 3566.00    2.67845   1.63575    0.000
 3567.00    2.66911   1.63026    0.000
 3568.00    2.65191   1.62330    0.000
 3569.00    2.66217   1.61290    0.000
 3570.00    2.65730   1.60043    0.000
 3571.00    2.66096   1.58959    0.000
 3572.00    2.63739   1.58416    0.000
 3573.00    2.64839   1.58285    0.000
 3574.00    2.62434   1.58312    0.000
 3575.00    2.63250   1.58319    0.000
 3576.00    2.63712   1.58120    0.000
 3577.00    2.64011   1.57545    0.000
 3578.00    2.63317   1.56672    0.000
 3579.00    2.65903   1.55776    0.000
 3580.00    2.67273   1.55162    0.000
 3581.00    2.66980   1.54861    0.000
 3582.00    2.65932   1.54720    0.000
 3583.00    2.67234   1.54625    0.000
 3584.00    2.71870   1.54559    0.000
 3585.00    2.84558   1.54523    0.000
 3586.00    2.90756   1.54533    0.000
 3587.00    2.88302   1.54626    0.000
 3588.00    2.81626   1.54916    0.000
 3589.00    2.73288   1.55499    0.000
 3590.00    2.68856   1.56225    0.000
 3591.00    2.70256   1.56763    0.000
 3592.00    2.68612   1.56980    0.000
 3593.00    2.67581   1.57090    0.000
 3594.00    2.69306   1.57301    0.000
 3595.00    2.69493   1.57675    0.000
 3596.00    2.70731   1.58182    0.000
 3597.00    2.73287   1.58772    0.000
 3598.00    2.69555   1.59394    0.000
 3599.00    2.69260   1.59909    0.000
 3600.00    2.69131   1.60062    0.000
 3601.00    2.70619   1.59636    0.000
 3602.00    2.70542   1.58753    0.000
 3603.00    2.71620   1.57668    0.000
 3604.00    2.73615   1.56734    0.000
 3605.00    2.74444   1.56103    0.000
 3606.00    2.71897   1.55708    0.000
 3607.00    2.70537   1.55434    0.000
 3608.00    2.67874   1.55258    0.000
 3609.00    2.71454   1.55232    0.000
 3610.00    2.78020   1.55334    0.000
 3611.00    2.92487   1.55508    0.000
 3612.00    3.04146   1.55734    0.000
 3613.00    3.04543   1.55904    0.000
 3614.00    2.99194   1.55941    0.000
 3615.00    2.85383   1.55811    0.000
 3616.00    2.76623   1.55464    0.000
 3617.00    2.74283   1.54943    0.000
 3618.00    2.74629   1.54472    0.000
 3619.00    2.73157   1.54377    0.000
 3620.00    2.74112   1.54762    0.000
 3621.00    2.75419   1.55632    0.000
 3622.00    2.73683   1.56701    0.000
 3623.00    2.72914   1.57625    0.000
 3624.00    2.69071   1.58351    0.000
 3625.00    2.68730   1.58999    0.000
 3626.00    2.69156   1.59491    0.000
 3627.00    2.70825   1.59479    0.000
 3628.00    2.70075   1.58742    0.000
 3629.00    2.69705   1.57465    0.000
 3630.00    2.69375   1.56109    0.000
 3631.00    2.78994   1.55129    0.000
 3632.00    2.93625   1.54672    0.000
 3633.00    2.97994   1.54649    0.000
 3634.00    2.95106   1.54773    0.000
 3635.00    2.89751   1.54676    0.000
 3636.00    2.76764   1.54348    0.000
 3637.00    2.72331   1.54200    0.000
 3638.00    2.70464   1.54402    0.000
 3639.00    2.70820   1.54798    0.000
 3640.00    2.69425   1.55125    0.000
 3641.00    2.68722   1.55111    0.000
 3642.00    2.68064   1.54581    0.000
 3643.00    2.67106   1.53559    0.000
 3644.00    2.66888   1.52309    0.000
 3645.00    2.61273   1.51180    0.000
 3646.00    2.55514   1.50382    0.000
 3647.00    2.43173   1.49996    0.000
 3648.00    2.31633   1.50056    0.000
 3649.00    2.24169   1.50487    0.000
 3650.00    2.15423   1.51129    0.000
 3651.00    2.09550   1.51768    0.000
 3652.00    2.05148   1.52284    0.000
 3653.00    2.01220   1.52632    0.000
 3654.00    1.96835   1.52932    0.000
 3655.00    1.94404   1.53299    0.000
 3656.00    1.94373   1.53713    0.000
 3657.00    1.93221   1.54074    0.000
 3658.00    1.91761   1.54251    0.000
 3659.00    1.92118   1.54174    0.000
 3660.00    1.91681   1.53832    0.000
 3661.00    1.91656   1.53335    0.000
 3662.00    1.92202   1.52834    0.000
 3663.00    1.89791   1.52479    0.000
 3664.00    1.90501   1.52228    0.000
 3665.00    1.89967   1.51955    0.000
 3666.00    1.88846   1.51553    0.000
 3667.00    1.89901   1.51012    0.000
 3668.00    1.88928   1.50537    0.000
 3669.00    1.90864   1.50356    0.000
 3670.00    1.88606   1.50499    0.000
 3671.00    1.89254   1.50747    0.000
 3672.00    1.87940   1.50843    0.000
 3673.00    1.81130   1.50686    0.000
 3674.00    1.90023   1.50313    0.000
 3675.00    1.82454   1.49750    0.000
 3676.00    1.79959   1.49014    0.000
 3677.00    1.90989   1.48115    0.000
 3678.00    1.80246   1.47266    0.000
 3679.00    1.76482   1.46689    0.000
 3680.00    1.86413   1.46512    0.000
 3681.00    1.81252   1.46668    0.000
 3682.00    1.73876   1.46888    0.000
 3683.00    1.72727   1.46878    0.000
 3684.00    1.79131   1.46488    0.000
 3685.00    1.85392   1.45827    0.000
 3686.00    1.83783   1.45158    0.000
 3687.00    1.76492   1.44872    0.000
 3688.00    1.63543   1.45163    0.000
 3689.00    1.75390   1.45900    0.000
 3690.00    1.90567   1.46660    0.000
 3691.00    1.89516   1.47101    0.000
 3692.00    1.77583   1.47056    0.000
 3693.00    1.49669   1.46585    0.000
 3694.00    1.57823   1.45926    0.000
 3695.00    1.96440   1.45430    0.000
 3696.00    2.06635   1.45323    0.000
 3697.00    1.99161   1.45594    0.000
 3698.00    1.71468   1.46091    0.000
 3699.00    1.37699   1.46480    0.000
 3700.00    1.37688   1.46328    0.000
 3701.00    1.83870   1.45244    0.000
 3702.00    2.40908   1.43306    0.000
 3703.00    2.67894   1.40963    0.000
 3704.00    2.60810   1.38917    0.000
 3705.00    2.14103   1.37651    0.000
 3706.00    1.62695   1.37243    0.000
 3707.00    1.39259   1.37403    0.000
 3708.00    1.44765   1.37753    0.000
 3709.00    1.95741   1.38124    0.000
 3710.00    2.50672   1.38519    0.000
 3711.00    2.61739   1.39027    0.000
 3712.00    2.52245   1.39736    0.000
 3713.00    2.10948   1.40586    0.000
 3714.00    1.68356   1.41321    0.000
 3715.00    1.63999   1.41581    0.000
 3716.00    1.68969   1.41043    0.000
 3717.00    1.79664   1.39594    0.000
 3718.00    2.13191   1.37444    0.000
 3719.00    3.18947   1.34942    0.000
 3720.00    4.17724   1.32777    0.000
 3721.00    4.81614   1.31687    0.000
 3722.00    8.39506   1.31910    0.000
 3723.00   25.04109   1.33107    0.000
 3724.00   43.62118   1.34594    0.000
 3725.00   57.28176   1.35794    0.000
 3726.00   81.88184   1.36583    0.000
 3727.00   85.19453   1.37101    0.000
 3728.00   68.93393   1.37360    0.000
 3729.00   56.80321   1.37144    0.000
 3730.00   29.04907   1.36160    0.000
 3731.00    7.15340   1.34245    0.000
 3732.00    4.33957   1.31667    0.000
 3733.00    4.10811   1.29042    0.000
 3734.00    3.73437   1.27132    0.000
 3735.00    3.06901   1.26590    0.000
 3736.00    2.11788   1.27573    0.000
 3737.00    1.71385   1.29780    0.000
 3738.00    1.63184   1.32561    0.000
 3739.00    1.56136   1.35167    0.000
 3740.00    1.50564   1.36924   -1.000
 3741.00    1.47146   1.37521   -1.000
 3742.00    1.44121   1.37001   37.036
 3743.00    1.39963   1.35756   37.564
 3744.00    1.36431   1.34191   38.107
 3745.00    1.35194   1.32451    0.000
 3746.00    1.47813   1.30441    0.000
 3747.00    2.29081   1.28150    0.000
 3748.00    3.28899   1.25955    0.000
 3749.00    3.51359   1.24545    0.000
 3750.00    3.28360   1.24508    0.000
 3751.00    2.48731   1.25875    0.000
 3752.00    1.51172   1.28066    0.000
 3753.00    1.23788   1.30367    0.000
 3754.00    1.21356   1.32176    0.000
 3755.00    1.20217   1.33084   -1.000
 3756.00    1.20325   1.32976   -1.000
 3757.00    1.18241   1.32151   -1.000
 3758.00    1.16827   1.31181   -1.000
 3759.00    1.16665   1.30599   -1.000
 3760.00    1.17338   1.30605   -1.000
 3761.00    1.17668   1.31116   -1.000
 3762.00    1.16129   1.31806   -1.000
 3763.00    1.13996   1.32108   -1.000
 3764.00    1.13429   1.31709   -1.000
 3765.00    1.12935   1.30610    0.000
 3766.00    1.18923   1.29022    0.000
 3767.00    1.73815   1.27210    0.000
 3768.00    3.19845   1.25404    0.000
 3769.00    3.95724   1.23882    0.000
 3770.00    3.92485   1.23062    0.000
 3771.00    3.29206   1.23377    0.000
 3772.00    1.94157   1.24800    0.000
 3773.00    1.20332   1.26860    0.000
 3774.00    1.11783   1.28958    0.000
 3775.00    1.11669   1.30703    0.000
 3776.00    1.11895   1.31994   -1.000
 3777.00    1.13149   1.32934   -1.000
 3778.00    1.13442   1.33630   -1.000
 3779.00    1.13049   1.34212   -1.000
 3780.00    1.14131   1.34732   -1.000
 3781.00    1.13675   1.35155   -1.000
 3782.00    1.14342   1.35394   -1.000
 3783.00    1.15734   1.35298   -1.000
 3784.00    1.16009   1.34819   -1.000
 3785.00    1.15437   1.34010   -1.000
 3786.00    1.15036   1.32929   -1.000
 3787.00    1.14096   1.31706   -1.000
 3788.00    1.12356   1.30512   -1.000
 3789.00    1.13171   1.29471   -1.000
 3790.00    1.12591   1.28590   -1.000
 3791.00    1.12865   1.27749   -1.000
 3792.00    1.12299   1.26724   -1.000
 3793.00    1.13747   1.25245    0.000
 3794.00    1.58175   1.23138    0.000
 3795.00    3.37938   1.20512    0.000
 3796.00    4.80978   1.17750    0.000
 3797.00    4.94339   1.15636    0.000
 3798.00    4.39201   1.15000    0.000
 3799.00    2.65774   1.16207    0.000
 3800.00    1.32457   1.18870    0.000
 3801.00    1.12359   1.22075    0.000
 3802.00    1.12448   1.24946    0.000
 3803.00    1.12912   1.27063   -1.000
 3804.00    1.13895   1.28339   -1.000
 3805.00    1.15041   1.28931   -1.000
 3806.00    1.14274   1.29097   -1.000
 3807.00    1.13934   1.29216   -1.000
 3808.00    1.13511   1.29502   -1.000
 3809.00    1.14153   1.29855   -1.000
 3810.00    1.12843   1.30044   -1.000
 3811.00    1.13697   1.29830   -1.000
 3812.00    1.14203   1.29176   -1.000
 3813.00    1.12741   1.28279   -1.000
 3814.00    1.12424   1.27357   -1.000
 3815.00    1.14933   1.26542    0.000
 3816.00    1.29700   1.25837    0.000
 3817.00    1.71275   1.25154    0.000
 3818.00    1.92339   1.24361    0.000
 3819.00    1.89475   1.23545    0.000
 3820.00    1.72168   1.22973    0.000
 3821.00    1.33155   1.22801    0.000
 3822.00    1.13882   1.22924    0.000
 3823.00    1.11595   1.22984    0.000
 3824.00    1.11582   1.22771   -1.000
 3825.00    1.10832   1.22353   -1.000
 3826.00    1.10385   1.21859   -1.000
 3827.00    1.10208   1.21413   -1.000
 3828.00    1.10488   1.20826   -1.000
 3829.00    1.11707   1.19868   -1.000
 3830.00    1.14433   1.18363    0.000
 3831.00    1.39651   1.16239    0.000
 3832.00    3.04629   1.13585    0.000
 3833.00    5.71227   1.10750    0.000
 3834.00    6.56481   1.08366    0.000
 3835.00    6.25336   1.07116    0.000
 3836.00    4.61281   1.07443    0.000
 3837.00    2.04820   1.09072    0.000
 3838.00    1.17922   1.11379    0.000
 3839.00    1.10058   1.13825    0.000
 3840.00    1.09471   1.16157    0.000
 3841.00    1.09541   1.18338   -1.000
 3842.00    1.11538   1.20397   -1.000
 3843.00    1.11087   1.22236   -1.000
 3844.00    1.10676   1.23618   -1.000
 3845.00    1.12233   1.24421   -1.000
 3846.00    1.12667   1.24621   -1.000
 3847.00    1.12902   1.24513   -1.000
 3848.00    1.12939   1.24292   -1.000
 3849.00    1.12429   1.24191   -1.000
 3850.00    1.12304   1.24192   -1.000
 3851.00    1.14206   1.24283   -1.000
 3852.00    1.14834   1.24290   -1.000
 3853.00    1.17207   1.24023   -1.000
 3854.00    1.19568   1.23475   44.694
 3855.00    1.19949   1.22719   44.629
 3856.00    1.20658   1.21929   44.562
 3857.00    1.17493   1.21241   45.193
 3858.00    1.15238   1.20875   -1.000
 3859.00    1.17346   1.20954    0.000
 3860.00    1.23275   1.21326    0.000
 3861.00    1.26285   1.21777    0.000
 3862.00    1.29037   1.21969    0.000
 3863.00    1.31975   1.21821    0.000
 3864.00    1.46822   1.21434    0.000
 3865.00    3.39008   1.21051    0.000
 3866.00    8.88484   1.20834    0.000
 3867.00   12.09671   1.20741    0.000
 3868.00   12.26169   1.20612    0.000
 3869.00   10.12895   1.20343    0.000
 3870.00    4.88934   1.19979    0.000
 3871.00    1.78013   1.19747    0.000
 3872.00    1.34071   1.19791    0.000
 3873.00    1.25557   1.20134    0.000
 3874.00    1.20216   1.20520    0.000
 3875.00    1.19225   1.20646    0.000
 3876.00    1.17740   1.20308    0.000
 3877.00    1.16890   1.19692   46.025
 3878.00    1.16371   1.19098   46.057
 3879.00    1.16359   1.18642   46.008
 3880.00    1.16467   1.18282   45.968
 3881.00    1.16980   1.17818   45.849
 3882.00    1.17590   1.17141    0.000
 3883.00    1.20844   1.16074    0.000
 3884.00    1.41377   1.14390    0.000
 3885.00    3.63645   1.11838    0.000
 3886.00   10.25676   1.08642    0.000
 3887.00   14.71288   1.05535    0.000
 3888.00   15.00439   1.03603    0.000
 3889.00   12.54941   1.03705    0.000
 3890.00    6.40934   1.05923    0.000
 3891.00    2.06149   1.09457    0.000
 3892.00    1.24937   1.13078    0.000
 3893.00    1.16195   1.16006    0.000
 3894.00    1.13794   1.17928    0.000
 3895.00    1.12964   1.19178    0.000
 3896.00    1.11046   1.19998   -1.000
 3897.00    1.10685   1.20565   -1.000
 3898.00    1.10533   1.20968   -1.000
 3899.00    1.10945   1.21246   -1.000
 3900.00    1.09899   1.21488   -1.000
 3901.00    1.09599   1.21701   -1.000
 3902.00    1.09619   1.21838   -1.000
 3903.00    1.09110   1.21871   -1.000
 3904.00    1.08229   1.21819   -1.000
 3905.00    1.07889   1.21837   -1.000
 3906.00    1.06664   1.22059   -1.000
 3907.00    1.06934   1.22608   -1.000
 3908.00    1.06457   1.23326   -1.000
 3909.00    1.06520   1.23982   -1.000
 3910.00    1.06197   1.24429   -1.000
 3911.00    1.05957   1.24735   -1.000
 3912.00    1.05747   1.24877   -1.000
 3913.00    1.06591   1.24847   -1.000
 3914.00    1.06823   1.24640   -1.000
 3915.00    1.06714   1.24265   -1.000
 3916.00    1.06257   1.23672   -1.000
 3917.00    1.09230   1.22827   -1.000
 3918.00    1.12064   1.21739   -1.000
 3919.00    1.12183   1.20504   -1.000
 3920.00    1.09143   1.19323   -1.000
 3921.00    1.08420   1.18310   -1.000
 3922.00    1.06362   1.17583   -1.000
 3923.00    1.07721   1.17145   -1.000
 3924.00    1.11829   1.16977   44.761
 3925.00    1.12635   1.16918   44.613
 3926.00    1.11662   1.16697   44.817
 3927.00    1.09549   1.16227   -1.000
 3928.00    1.06176   1.15446   -1.000
 3929.00    1.03384   1.14265   -1.000
 3930.00    1.00395   1.12402   -1.000
 3931.00    0.98387   1.09643   -1.000
 3932.00    0.96925   1.06545   -1.000
 3933.00    0.96108   1.04355   -1.000
 3934.00    0.96116   1.04493   -1.000
 3935.00    0.97718   1.06854   -1.000
 3936.00    0.98699   1.10075   -1.000
 3937.00    1.01316   1.12970   -1.000
 3938.00    1.03336   1.14961   -1.000
 3939.00    1.03908   1.16118   -1.000
 3940.00    1.05503   1.16724   -1.000
 3941.00    1.05480   1.16921   -1.000
 3942.00    1.04794   1.16770   -1.000
 3943.00    1.05014   1.16430   -1.000
 3944.00    1.05933   1.16107   -1.000
 3945.00    1.06970   1.15969   -1.000
 3946.00    1.07157   1.16144   -1.000
 3947.00    1.07156   1.16551   -1.000
 3948.00    1.06872   1.17080   -1.000
 3949.00    1.06367   1.17574   -1.000
 3950.00    1.06489   1.17895   -1.000
 3951.00    1.06721   1.17987   -1.000
 3952.00    1.06738   1.17896   -1.000
 3953.00    1.06439   1.17687   -1.000
 3954.00    1.06673   1.17357   -1.000
 3955.00    1.06782   1.16855   -1.000
 3956.00    1.07006   1.16191   -1.000
 3957.00    1.08154   1.15432    0.000
 3958.00    1.07990   1.14559    0.000
 3959.00    1.08796   1.13507    0.000
 3960.00    1.10491   1.12162    0.000
 3961.00    1.23887   1.10610    0.000
 3962.00    1.59562   1.08928    0.000
 3963.00    1.93253   1.07091    0.000
 3964.00    2.91233   1.04825    0.000
 3965.00    4.40571   1.01685    0.000
 3966.00    6.01189   0.97477    0.000
 3967.00   11.00723   0.92682    0.000
 3968.00   14.60919   0.88627    0.000
 3969.00   13.71135   0.86776    0.000
 3970.00   11.55765   0.87641    0.000
 3971.00    6.49563   0.90747    0.000
 3972.00    2.06863   0.95053    0.000
 3973.00    1.18489   0.99544    0.000
 3974.00    1.11620   1.03509    0.000
 3975.00    1.08946   1.06710    0.000
 3976.00    1.06743   1.09178    0.000
 3977.00    1.05664   1.11086   -1.000
 3978.00    1.06184   1.12595   -1.000
 3979.00    1.05851   1.13814   -1.000
 3980.00    1.04742   1.14688   -1.000
 3981.00    1.04224   1.15247   -1.000
 3982.00    1.03455   1.15490   -1.000
 3983.00    1.04031   1.15538   -1.000
 3984.00    1.03674   1.15506   -1.000
 3985.00    1.02801   1.15484   -1.000
 3986.00    1.02476   1.15582   -1.000
 3987.00    1.01878   1.15864   -1.000
 3988.00    1.01198   1.16500   -1.000
 3989.00    1.00687   1.17093   -1.000
 3990.00    1.01291   1.17630   -1.000
 3991.00    1.04183   1.17979   -1.000
 3992.00    1.03844   1.18197   -1.000
 3993.00    1.01727   1.18243   -1.000
 3994.00    1.01421   1.18090   -1.000
 3995.00    1.02092   1.17784   -1.000
 3996.00    1.03561   1.17456   -1.000
 3997.00    1.02537   1.17293   -1.000
 3998.00    1.01900   1.17342   -1.000
 3999.00    1.01508   1.17584   -1.000
 4000.00    1.01177   1.17838   -1.000
 4001.00    1.00644   1.18010   -1.000
 4002.00    1.00097   1.17888   -1.000
 4003.00    1.00310   1.17465    0.000
 4004.00    1.00075   1.16809    0.000
 4005.00    1.00450   1.16263    0.000
 4006.00    1.05917   1.16074    0.000
 4007.00    1.12165   1.16338    0.000
 4008.00    1.12556   1.16887    0.000
 4009.00    1.10082   1.17477    0.000
 4010.00    1.06203   1.17990    0.000
 4011.00    1.01330   1.18428    0.000
 4012.00    1.00000   1.18778    0.000
 4013.00    0.99799   1.19026    0.000
 4014.00    0.99644   1.19162    0.000
 4015.00    1.00410   1.19183   -1.000
 4016.00    1.01277   1.19187   -1.000
 4017.00    1.00747   1.19210   -1.000
 4018.00    1.00817   1.19246   -1.000
 4019.00    1.00739   1.19210   -1.000
 4020.00    1.00132   1.18996    0.000
 4021.00    1.00105   1.18501    0.000
 4022.00    1.13131   1.17701    0.000
 4023.00    1.74253   1.16616    0.000
 4024.00    2.39570   1.15516    0.000
 4025.00    2.55337   1.14810    0.000
 4026.00    2.40754   1.14804    0.000
 4027.00    1.80368   1.15363    0.000
 4028.00    1.17008   1.15928    0.000
 4029.00    1.01614   1.15926    0.000
 4030.00    0.99940   1.15216    0.000
 4031.00    0.99523   1.14134    0.000
 4032.00    0.99679   1.13251   -1.000
 4033.00    0.99509   1.13013   -1.000
 4034.00    0.98104   1.13573   -1.000
 4035.00    0.99214   1.14806   -1.000
 4036.00    0.98695   1.16293   -1.000
 4037.00    0.98463   1.17591   -1.000
 4038.00    0.99350   1.18368   -1.000
 4039.00    0.99121   1.18561   -1.000
 4040.00    0.98601   1.18248   -1.000
 4041.00    0.98582   1.17551   -1.000
 4042.00    0.98285   1.16399   -1.000
 4043.00    0.98564   1.14869   -1.000
 4044.00    0.98405   1.13249   -1.000
 4045.00    0.98991   1.12088   -1.000
 4046.00    0.99289   1.11900   -1.000
 4047.00    0.99193   1.12737   -1.000
 4048.00    1.00222   1.14226   -1.000
 4049.00    0.98746   1.15775   -1.000
 4050.00    0.99352   1.16925   -1.000
 4051.00    1.00063   1.17500   -1.000
 4052.00    0.99522   1.17525   -1.000
 4053.00    1.00140   1.17123   -1.000
 4054.00    1.00011   1.16503   -1.000
 4055.00    0.99985   1.15810   -1.000
 4056.00    1.00133   1.15213   -1.000
 4057.00    1.00591   1.14800   -1.000
 4058.00    1.00641   1.14614   -1.000
 4059.00    1.00772   1.14462   -1.000
 4060.00    0.99772   1.14088   -1.000
 4061.00    0.99620   1.13231    0.000
 4062.00    1.00480   1.11878    0.000
 4063.00    0.99699   1.10308    0.000
 4064.00    1.01986   1.09013    0.000
 4065.00    1.17289   1.08374    0.000
 4066.00    1.44159   1.08712    0.000
 4067.00    1.62338   1.09496    0.000
 4068.00    1.67286   1.10174    0.000
 4069.00    1.54444   1.10334    0.000
 4070.00    1.25232   1.10023    0.000
 4071.00    1.07646   1.09596    0.000
 4072.00    1.04240   1.09367    0.000
 4073.00    1.10276   1.09345    0.000
 4074.00    1.17584   1.09331    0.000
 4075.00    1.19769   1.09120    0.000
 4076.00    1.19949   1.08801    0.000
 4077.00    1.13337   1.08748    0.000
 4078.00    1.04623   1.09234    0.000
 4079.00    1.01576   1.10254    0.000
 4080.00    0.99776   1.11396    0.000
 4081.00    0.99546   1.12235    0.000
 4082.00    1.00650   1.12480    0.000
 4083.00    1.01451   1.12306   -1.000
 4084.00    1.01659   1.12029   -1.000
 4085.00    1.02063   1.12049   -1.000
 4086.00    1.02190   1.12428   -1.000
 4087.00    1.01161   1.13007   -1.000
 4088.00    1.01309   1.13430   -1.000
 4089.00    1.01878   1.13480   -1.000
 4090.00    1.01098   1.13105   -1.000
 4091.00    1.01562   1.12429   -1.000
 4092.00    1.03478   1.11515   -1.000
 4093.00    1.05381   1.10251   53.390
 4094.00    1.07047   1.08559   52.987
 4095.00    1.11138   1.06408   52.071
 4096.00    1.17782   1.03910   -1.000
 4097.00    1.70973   1.01187   -1.000
 4098.00    6.24277   0.98252   -1.000
 4099.00   16.44051   0.95233    0.000
 4100.00   21.40922   0.92557    0.000
 4101.00   21.05596   0.90958    0.000
 4102.00   16.27767   0.91094    0.000
 4103.00    6.33136   0.93116    0.000
 4104.00    1.72957   0.96404    0.000
 4105.00    1.17714   0.99944    0.000
 4106.00    1.09119   1.02920    0.000
 4107.00    1.05823   1.04934   53.924
 4108.00    1.04361   1.06073   54.324
 4109.00    1.02236   1.06617   54.931
 4110.00    1.00924   1.06906   -1.000
 4111.00    0.99468   1.07218   -1.000
 4112.00    0.99081   1.07663   -1.000
 4113.00    0.98689   1.08241   -1.000
 4114.00    0.97613   1.08803   -1.000
 4115.00    0.96805   1.09148   -1.000
 4116.00    0.96550   1.09115    0.000
 4117.00    1.00024   1.08740    0.000
 4118.00    1.06771   1.08205    0.000
 4119.00    1.10492   1.07792    0.000
 4120.00    1.10471   1.07638    0.000
 4121.00    1.06426   1.07769    0.000
 4122.00    0.99691   1.08098    0.000
 4123.00    0.96233   1.08535    0.000
 4124.00    0.94636   1.08919    0.000
 4125.00    0.94458   1.09117    0.000
 4126.00    0.95097   1.08972   -1.000
 4127.00    0.95231   1.08529   -1.000
 4128.00    0.96095   1.07865   -1.000
 4129.00    0.96303   1.07155   -1.000
 4130.00    0.96720   1.06407   -1.000
 4131.00    0.97076   1.05711   -1.000
 4132.00    0.96963   1.05181   -1.000
 4133.00    0.96978   1.05071   -1.000
 4134.00    0.95216   1.05479   -1.000
 4135.00    0.93891   1.06312   -1.000
 4136.00    0.93436   1.07246   -1.000
 4137.00    0.94109   1.07993   -1.000
 4138.00    0.93634   1.08310   -1.000
 4139.00    0.94152   1.08113    0.000
 4140.00    0.99041   1.07332    0.000
 4141.00    1.09874   1.06096    0.000
 4142.00    1.15319   1.04673    0.000
 4143.00    1.14436   1.03582    0.000
 4144.00    1.09666   1.03184    0.000
 4145.00    0.99078   1.03543    0.000
 4146.00    0.93586   1.04313    0.000
 4147.00    0.93082   1.05022    0.000
 4148.00    0.92992   1.05427   -1.000
 4149.00    0.93071   1.05525   -1.000
 4150.00    0.94866   1.05451   -1.000
 4151.00    0.98375   1.05327   -1.000
 4152.00    0.98483   1.05171   -1.000
 4153.00    0.98356   1.05011   -1.000
 4154.00    0.96803   1.04895   -1.000
 4155.00    0.94091   1.04898   -1.000
 4156.00    0.92793   1.05103   -1.000
 4157.00    0.92221   1.05523   -1.000
 4158.00    0.91053   1.06081   -1.000
 4159.00    0.91588   1.06680   -1.000
 4160.00    0.91827   1.07189   -1.000
 4161.00    0.91990   1.07558   -1.000
 4162.00    0.92262   1.07700   -1.000
 4163.00    0.91306   1.07537   -1.000
 4164.00    0.91044   1.07031   -1.000
 4165.00    0.92134   1.06289   -1.000
 4166.00    0.94571   1.05491   -1.000
 4167.00    0.96431   1.04848   -1.000
 4168.00    0.96210   1.04413   -1.000
 4169.00    0.95337   1.04069   -1.000
 4170.00    0.93330   1.03622   -1.000
 4171.00    0.91585   1.02963   -1.000
 4172.00    0.91954   1.02256   -1.000
 4173.00    0.91620   1.01690   -1.000
 4174.00    0.90770   1.01443   -1.000
 4175.00    0.90173   1.01460   -1.000
 4176.00    0.90777   1.01671   -1.000
 4177.00    0.90147   1.01967   -1.000
 4178.00    0.91146   1.02272   -1.000
 4179.00    0.91554   1.02496   -1.000
 4180.00    0.89974   1.02590   -1.000
 4181.00    0.90277   1.02618   -1.000
 4182.00    0.90782   1.02671   -1.000
 4183.00    0.91111   1.02798   -1.000
 4184.00    0.91341   1.02904   -1.000
 4185.00    0.90833   1.02835   -1.000
 4186.00    0.89439   1.02545   -1.000
 4187.00    0.90574   1.02143   -1.000
 4188.00    0.91133   1.01799   -1.000
 4189.00    0.90635   1.01580   -1.000
 4190.00    0.90843   1.01467   -1.000
 4191.00    0.90433   1.01388   -1.000
 4192.00    0.90060   1.01260   -1.000
 4193.00    0.89375   1.00932   -1.000
 4194.00    0.89225   1.00242   -1.000
 4195.00    0.88866   0.99092   -1.000
 4196.00    0.88620   0.97620   -1.000
 4197.00    0.88003   0.96041   -1.000
 4198.00    0.87367   0.94654   -1.000
 4199.00    0.86745   0.93718   -1.000
 4200.00    0.87208   0.93454   -1.000
 4201.00    0.88318   0.93946   -1.000
 4202.00    0.88329   0.95063   -1.000
 4203.00    0.89823   0.96564   -1.000
 4204.00    0.89930   0.98114   -1.000
 4205.00    0.88664   0.99484   -1.000
 4206.00    0.89052   1.00496   -1.000
 4207.00    0.89336   1.01107   -1.000
 4208.00    0.88697   1.01310   -1.000
 4209.00    0.89174   1.01187   -1.000
 4210.00    0.89562   1.00823   -1.000
 4211.00    0.89390   1.00333   -1.000
 4212.00    0.89172   0.99735   -1.000
 4213.00    0.88583   0.99104   -1.000
 4214.00    0.88637   0.98528   -1.000
 4215.00    0.88674   0.98269   -1.000
 4216.00    0.88819   0.98454   -1.000
 4217.00    0.89164   0.99090   -1.000
 4218.00    0.89088   0.99861   -1.000
 4219.00    0.88257   1.00377   -1.000
 4220.00    0.88716   1.00288   -1.000
 4221.00    0.88449   0.99449   -1.000
 4222.00    0.87985   0.97822   -1.000
 4223.00    0.87833   0.95666   -1.000
 4224.00    0.88910   0.93288   58.651
 4225.00    0.88405   0.91312   58.798
 4226.00    0.88570   0.90170   58.752
 4227.00    0.88534   0.90243   58.748
 4228.00    0.88222   0.91360   58.852
 4229.00    0.88661   0.93090   58.724
 4230.00    0.87774   0.94757   -1.000
 4231.00    0.87737   0.95924   -1.000
 4232.00    0.88349   0.96427   -1.000
 4233.00    0.87424   0.96435   -1.000
 4234.00    0.87541   0.96226   -1.000
 4235.00    0.87349   0.96084   -1.000
 4236.00    0.87229   0.96156   -1.000
 4237.00    0.88051   0.96485   -1.000
 4238.00    0.88605   0.96991   -1.000
 4239.00    0.88637   0.97614   -1.000
 4240.00    0.88448   0.98324   -1.000
 4241.00    0.87587   0.99152   -1.000
 4242.00    0.87614   1.00030   -1.000
 4243.00    0.88456   1.00827   -1.000
 4244.00    0.88709   1.01265   -1.000
 4245.00    0.88303   1.01156   -1.000
 4246.00    0.88002   1.00428   -1.000
 4247.00    0.87895   0.99228   -1.000
 4248.00    0.87533   0.97906   -1.000
 4249.00    0.87333   0.96786   -1.000
 4250.00    0.87977   0.96091   -1.000
 4251.00    0.87388   0.95781   -1.000
 4252.00    0.86982   0.95682   -1.000
 4253.00    0.87768   0.95679   -1.000
 4254.00    0.87835   0.95716   -1.000
 4255.00    0.87564   0.95893   -1.000
 4256.00    0.87065   0.96085   -1.000
 4257.00    0.86525   0.96109   -1.000
 4258.00    0.86541   0.95831   -1.000
 4259.00    0.87008   0.95430   -1.000
 4260.00    0.87331   0.95323   -1.000
 4261.00    0.87304   0.95790   -1.000
 4262.00    0.87541   0.96812   -1.000
 4263.00    0.89214   0.98006   -1.000
 4264.00    0.95075   0.98936   57.681
 4265.00    1.00442   0.99284   56.159
 4266.00    1.02978   0.98950   55.509
 4267.00    1.00142   0.97992   56.324
 4268.00    0.93056   0.96555   58.484
 4269.00    0.87466   0.94848   -1.000
 4270.00    0.86035   0.93182   -1.000
 4271.00    0.86132   0.91841   -1.000
 4272.00    0.86295   0.91094   -1.000
 4273.00    0.87147   0.91031   60.579
 4274.00    0.87659   0.91651   60.397
 4275.00    0.87423   0.92788   -1.000
 4276.00    0.87681   0.94183   -1.000
 4277.00    0.87170   0.95446   -1.000
 4278.00    0.86285   0.96259   -1.000
 4279.00    0.85532   0.96547   -1.000
 4280.00    0.86202   0.96470   -1.000
 4281.00    0.87017   0.96277   -1.000
 4282.00    0.86359   0.96105   -1.000
 4283.00    0.86077   0.95931   -1.000
 4284.00    0.87497   0.95680   -1.000
 4285.00    0.88772   0.95299   -1.000
 4286.00    0.88603   0.94720   -1.000
 4287.00    0.88172   0.93964   -1.000
 4288.00    0.87711   0.93060   -1.000
 4289.00    0.87046   0.92235   -1.000
 4290.00    0.85903   0.91701   -1.000
 4291.00    0.86057   0.91640   -1.000
 4292.00    0.86772   0.91900   -1.000
 4293.00    0.86146   0.92207   -1.000
 4294.00    0.85616   0.92259   -1.000
 4295.00    0.85567   0.91905   -1.000
 4296.00    0.86096   0.91150   -1.000
 4297.00    0.85655   0.90078   61.591
 4298.00    0.85495   0.88877   61.640
 4299.00    0.84846   0.87815   61.872
 4300.00    0.85790   0.87080   61.533
 4301.00    0.89327   0.86755   60.289
 4302.00    0.91425   0.86718   59.589
 4303.00    0.91877   0.86761   59.439
 4304.00    0.90866   0.86695   59.766
 4305.00    0.87578   0.86374   60.883
 4306.00    0.86287   0.85832   61.308
 4307.00    0.86172   0.85264   61.360
 4308.00    0.85680   0.84980   61.529
 4309.00    0.85388   0.85224   61.613
 4310.00    0.86011   0.86056   61.400
 4311.00    0.86248   0.87376   61.301
 4312.00    0.86261   0.89077   61.300
 4313.00    0.87061   0.91036   61.019
 4314.00    0.88668   0.93130   60.459
 4315.00    0.89909   0.95169   -1.000
 4316.00    0.90987   0.96836   -1.000
 4317.00    0.90864   0.97911   -1.000
 4318.00    0.90030   0.98234   -1.000
 4319.00    0.88539   0.97846   -1.000
 4320.00    0.87480   0.96842   -1.000
 4321.00    0.87585   0.95298   -1.000
 4322.00    0.89297   0.93342   60.126
 4323.00    0.90659   0.91313   59.650
 4324.00    0.90828   0.89679   59.547
 4325.00    0.90845   0.89011   59.507
 4326.00    0.91560   0.89503   59.262
 4327.00    0.92197   0.90957   59.017
 4328.00    0.92848   0.92720   58.777
 4329.00    0.94357   0.94228   58.273
 4330.00    0.95841   0.95168   57.809
 4331.00    0.96694   0.95541   57.458
 4332.00    0.98646   0.95502   56.846
 4333.00    1.01731   0.94991   -1.000
 4334.00    1.08787   0.93813   -1.000
 4335.00    1.32416   0.91700   -1.000
 4336.00    3.78897   0.88603   -1.000
 4337.00   17.08191   0.84852   -1.000
 4338.00   34.95520   0.81218   -1.000
 4339.00   40.10365   0.78622   -1.000
 4340.00   37.29966   0.77776    0.000
 4341.00   24.17887   0.78831    0.000
 4342.00    6.64396   0.81313    0.000
 4343.00    1.59857   0.84379    0.000
 4344.00    1.18009   0.87328    0.000
 4345.00    1.08985   0.89723    0.000
 4346.00    1.04624   0.91506    0.000
 4347.00    1.01347   0.92608    0.000
 4348.00    0.98599   0.93029    0.000
 4349.00    0.96194   0.92763    0.000
 4350.00    0.93627   0.91991    0.000
 4351.00    0.91926   0.91163    0.000
 4352.00    0.90889   0.90664    0.000
 4353.00    0.89766   0.90723    0.000
 4354.00    0.90070   0.91261    0.000
 4355.00    0.90465   0.92006    0.000
 4356.00    0.90669   0.92682    0.000
 4357.00    0.90686   0.93172    0.000
 4358.00    0.91518   0.93498    0.000
 4359.00    0.97453   0.93766    0.000
 4360.00    1.25668   0.94068    0.000
 4361.00    1.52107   0.94428    0.000
 4362.00    1.57966   0.94791    0.000
 4363.00    1.51460   0.95104    0.000
 4364.00    1.23152   0.95245    0.000
 4365.00    0.96347   0.95094    0.000
 4366.00    0.89906   0.94606    0.000
 4367.00    0.88013   0.93868   -1.000
 4368.00    0.86695   0.93060   -1.000
 4369.00    0.85815   0.92312   -1.000
 4370.00    0.83674   0.91592   -1.000
 4371.00    0.82832   0.90812   -1.000
 4372.00    0.82594   0.89953   -1.000
 4373.00    0.83403   0.89105   -1.000
 4374.00    0.82918   0.88464   -1.000
 4375.00    0.83266   0.88176   -1.000
 4376.00    0.83839   0.88273   61.225
 4377.00    0.83402   0.88501   -1.000
 4378.00    0.83051   0.88507   -1.000
 4379.00    0.82790   0.87940   -1.000
 4380.00    0.81868   0.86660   61.982
 4381.00    0.81843   0.84864   62.011
 4382.00    0.82302   0.82975    0.000
 4383.00    0.81921   0.81605    0.000
 4384.00    0.89019   0.81152    0.000
 4385.00    1.10368   0.81656    0.000
 4386.00    1.23472   0.82706    0.000
 4387.00    1.23829   0.83811    0.000
 4388.00    1.15222   0.84649    0.000
 4389.00    0.95991   0.85212    0.000
 4390.00    0.83959   0.85634    0.000
 4391.00    0.82592   0.86034    0.000
 4392.00    0.81915   0.86497    0.000
 4393.00    0.80910   0.87025   -1.000
 4394.00    0.80536   0.87615   -1.000
 4395.00    0.81679   0.88247   -1.000
 4396.00    0.81475   0.88821   -1.000
 4397.00    0.80926   0.89168   -1.000
 4398.00    0.81651   0.89111   -1.000
 4399.00    0.82391   0.88613   -1.000
 4400.00    0.81925   0.87762   -1.000
 4401.00    0.81218   0.86653   -1.000
 4402.00    0.80573   0.85374   -1.000
 4403.00    0.80625   0.84108   62.792
 4404.00    0.80929   0.83081   62.697
 4405.00    0.81817   0.82637   62.348
 4406.00    0.82265   0.82896   62.165
 4407.00    0.81901   0.83806   62.332
 4408.00    0.81819   0.85117   62.355
 4409.00    0.82667   0.86556   62.005
 4410.00    0.82022   0.87783   -1.000
 4411.00    0.81117   0.88486   -1.000
 4412.00    0.80459   0.88439   -1.000
 4413.00    0.81149   0.87761   -1.000
 4414.00    0.81544   0.86825   -1.000
 4415.00    0.82174   0.86170   62.167
 4416.00    0.82427   0.86168   62.086
 4417.00    0.80997   0.86803   -1.000
 4418.00    0.79574   0.87665   -1.000
 4419.00    0.79390   0.88277   -1.000
 4420.00    0.79167   0.88355   -1.000
 4421.00    0.79334   0.87907   -1.000
 4422.00    0.79024   0.87199   -1.000
 4423.00    0.79142   0.86521   -1.000
 4424.00    0.79788   0.86061   -1.000
 4425.00    0.79591   0.85819   -1.000
 4426.00    0.80012   0.85724   -1.000
 4427.00    0.80156   0.85723   -1.000
 4428.00    0.79779   0.85752   -1.000
 4429.00    0.79053   0.85790   -1.000
 4430.00    0.78893   0.85786   -1.000
 4431.00    0.78724   0.85681   -1.000
 4432.00    0.78760   0.85433   -1.000
 4433.00    0.78842   0.85060   -1.000
 4434.00    0.80382   0.84760   -1.000
 4435.00    0.81920   0.84795   62.379
 4436.00    0.83249   0.85337   61.909
 4437.00    0.83731   0.86218   61.748
 4438.00    0.81238   0.87081   -1.000
 4439.00    0.79566   0.87518   -1.000
 4440.00    0.78746   0.87452   -1.000
 4441.00    0.78305   0.87125   -1.000
 4442.00    0.78657   0.86933   -1.000
 4443.00    0.78716   0.87154   -1.000
 4444.00    0.78429   0.87776   -1.000
 4445.00    0.77591   0.88570   -1.000
 4446.00    0.78491   0.89229   -1.000
 4447.00    0.79269   0.89608   -1.000
 4448.00    0.79002   0.89711   -1.000
 4449.00    0.79870   0.89604   -1.000
 4450.00    0.79951   0.89278   -1.000
 4451.00    0.79032   0.88634   -1.000
 4452.00    0.79667   0.87639   -1.000
 4453.00    0.78976   0.86357   -1.000
 4454.00    0.78484   0.85045   -1.000
 4455.00    0.79897   0.83980   63.332
 4456.00    0.79632   0.83350   63.421
 4457.00    0.79275   0.83129   63.567
 4458.00    0.79538   0.83130   63.476
 4459.00    0.78912   0.83250   63.744
 4460.00    0.78666   0.83465   -1.000
 4461.00    0.79096   0.83852   -1.000
 4462.00    0.78582   0.84448   -1.000
 4463.00    0.78536   0.85155   -1.000
 4464.00    0.79691   0.85771   -1.000
 4465.00    0.79677   0.86129    0.000
 4466.00    0.80696   0.86158    0.000
 4467.00    1.04011   0.85928    0.000
 4468.00    2.30939   0.85594    0.000
 4469.00    3.98935   0.85330    0.000
 4470.00    4.46421   0.85324    0.000
 4471.00    4.19692   0.85679    0.000
 4472.00    2.94193   0.86342    0.000
 4473.00    1.28443   0.87123    0.000
 4474.00    0.82632   0.87839    0.000
 4475.00    0.79515   0.88358    0.000
 4476.00    0.78814   0.88570    0.000
 4477.00    0.78444   0.88413    0.000
 4478.00    0.77805   0.87833   -1.000
 4479.00    0.77667   0.86936   -1.000
 4480.00    0.78247   0.86024   -1.000
 4481.00    0.78005   0.85508   -1.000
 4482.00    0.78211   0.85640   -1.000
 4483.00    0.78702   0.86330   -1.000
 4484.00    0.78456   0.87281   -1.000
 4485.00    0.78004   0.88035   -1.000
 4486.00    0.78649   0.88294   -1.000
 4487.00    0.79665   0.88001   -1.000
 4488.00    0.80252   0.87389   -1.000
 4489.00    0.80784   0.86759   -1.000
 4490.00    0.79808   0.86333   -1.000
 4491.00    0.79599   0.86110   -1.000
 4492.00    0.78084   0.85915   -1.000
 4493.00    0.76567   0.85639   -1.000
 4494.00    0.76522   0.85325   -1.000
 4495.00    0.76520   0.85169   -1.000
 4496.00    0.77045   0.85290   -1.000
 4497.00    0.77027   0.85630   -1.000
 4498.00    0.76429   0.86022   -1.000
 4499.00    0.75985   0.86338   -1.000
 4500.00    0.76120   0.86608   -1.000
 4501.00    0.76415   0.86997   -1.000
 4502.00    0.76483   0.87601   -1.000
 4503.00    0.77187   0.88426   -1.000
 4504.00    0.77674   0.89203   -1.000
 4505.00    0.77557   0.89749   -1.000
 4506.00    0.77418   0.89927   -1.000
 4507.00    0.76771   0.89787   -1.000
 4508.00    0.76039   0.89508   -1.000
 4509.00    0.76091   0.89174   -1.000
 4510.00    0.76307   0.88811   -1.000
 4511.00    0.76228   0.88393   -1.000
 4512.00    0.75766   0.87879   -1.000
 4513.00    0.75790   0.87349   -1.000
 4514.00    0.76207   0.86923   -1.000
 4515.00    0.76387   0.86672   -1.000
 4516.00    0.76551   0.86577   -1.000
 4517.00    0.76659   0.86585   -1.000
 4518.00    0.76593   0.86676   -1.000
 4519.00    0.76021   0.86845   -1.000
 4520.00    0.75882   0.87041   -1.000
 4521.00    0.75051   0.87082   -1.000
 4522.00    0.75517   0.86815   -1.000
 4523.00    0.76696   0.86152   -1.000
 4524.00    0.76221   0.85135   -1.000
 4525.00    0.76078   0.83910   -1.000
 4526.00    0.76386   0.82601   -1.000
 4527.00    0.75776   0.81387   -1.000
 4528.00    0.74847   0.80468   -1.000
 4529.00    0.74667   0.79954   -1.000
 4530.00    0.75176   0.79874   -1.000
 4531.00    0.75157   0.80064   -1.000
 4532.00    0.74807   0.80291   -1.000
 4533.00    0.74703   0.80418   -1.000
 4534.00    0.74902   0.80486   -1.000
 4535.00    0.74585   0.80670   -1.000
 4536.00    0.75143   0.81122   -1.000
 4537.00    0.74542   0.81773   -1.000
 4538.00    0.73878   0.82322   -1.000
 4539.00    0.73168   0.82499   -1.000
 4540.00    0.73055   0.82258   -1.000
 4541.00    0.72959   0.81840   -1.000
 4542.00    0.73375   0.81561   -1.000
 4543.00    0.73561   0.81542   -1.000
 4544.00    0.74282   0.81752   -1.000
 4545.00    0.74729   0.82037   -1.000
 4546.00    0.73649   0.82285   -1.000
 4547.00    0.74146   0.82481   -1.000
 4548.00    0.74644   0.82626   -1.000
 4549.00    0.74637   0.82738   -1.000
 4550.00    0.74210   0.82828   -1.000
 4551.00    0.73798   0.82881   -1.000
 4552.00    0.74022   0.82830   -1.000
 4553.00    0.73397   0.82687   -1.000
 4554.00    0.73856   0.82570   -1.000
 4555.00    0.74280   0.82677   -1.000
 4556.00    0.74196   0.83145   -1.000
 4557.00    0.74472   0.83939   -1.000
 4558.00    0.75131   0.84861   -1.000
 4559.00    0.76483   0.85595   -1.000
 4560.00    0.78779   0.86001   -1.000
 4561.00    0.79840   0.85983   -1.000
 4562.00    0.79326   0.85610   -1.000
 4563.00    0.76826   0.85048   -1.000
 4564.00    0.75095   0.84521   -1.000
 4565.00    0.74065   0.84242   -1.000
 4566.00    0.73769   0.84304   -1.000
 4567.00    0.74413   0.84595   -1.000
 4568.00    0.76611   0.84926   -1.000
 4569.00    0.77996   0.85033   -1.000
 4570.00    0.79031   0.84878   -1.000
 4571.00    0.77932   0.84586   -1.000
 4572.00    0.75320   0.84372   -1.000
 4573.00    0.74329   0.84386   -1.000
 4574.00    0.74255   0.84547   -1.000
 4575.00    0.74638   0.84690   -1.000
 4576.00    0.74096   0.84627   -1.000
 4577.00    0.73805   0.84273   -1.000
 4578.00    0.74131   0.83638   -1.000
 4579.00    0.73261   0.82845   -1.000
 4580.00    0.73317   0.82093   -1.000
 4581.00    0.73489   0.81601   -1.000
 4582.00    0.73502   0.81387   -1.000
 4583.00    0.73320   0.81388   -1.000
 4584.00    0.73209   0.81470   -1.000
 4585.00    0.73355   0.81565   -1.000
 4586.00    0.73281   0.81760   -1.000
 4587.00    0.73026   0.82102   -1.000
 4588.00    0.73402   0.82550   -1.000
 4589.00    0.73602   0.82905   -1.000
 4590.00    0.73158   0.82965   -1.000
 4591.00    0.73628   0.82687   -1.000
 4592.00    0.74434   0.82146   -1.000
 4593.00    0.74531   0.81557   -1.000
 4594.00    0.74726   0.81090   -1.000
 4595.00    0.74589   0.80818   -1.000
 4596.00    0.74770   0.80740   -1.000
 4597.00    0.74513   0.80792   -1.000
 4598.00    0.74079   0.80867   -1.000
 4599.00    0.74200   0.80905   -1.000
 4600.00    0.74114   0.80872    0.000
 4601.00    0.74561   0.80768    0.000
 4602.00    0.74960   0.80635    0.000
 4603.00    0.75131   0.80495    0.000
 4604.00    0.75392   0.80403    0.000
 4605.00    0.76181   0.80479    0.000
 4606.00    0.76280   0.80848    0.000
 4607.00    0.76906   0.81488    0.000
 4608.00    0.75447   0.82261    0.000
 4609.00    0.74616   0.82991    0.000
 4610.00    0.74677   0.83411    0.000
 4611.00    0.74578   0.83494    0.000
 4612.00    0.74405   0.83326    0.000
 4613.00    0.74487   0.83099    0.000
 4614.00    0.74488   0.82996    0.000
 4615.00    0.74611   0.83056    0.000
 4616.00    0.74645   0.83210    0.000
 4617.00    0.75319   0.83351    0.000
 4618.00    0.75551   0.83434    0.000
 4619.00    0.75544   0.83458    0.000
 4620.00    0.75911   0.83441    0.000
 4621.00    0.76269   0.83404    0.000
 4622.00    0.75367   0.83345    0.000
 4623.00    0.75490   0.83214    0.000
 4624.00    0.74855   0.82991    0.000
 4625.00    0.75044   0.82696    0.000
 4626.00    0.74091   0.82369    0.000
 4627.00    0.74620   0.82089    0.000
 4628.00    0.76045   0.81901    0.000
 4629.00    0.76515   0.81799    0.000
 4630.00    0.75867   0.81734    0.000
 4631.00    0.76091   0.81676    0.000
 4632.00    0.75575   0.81579    0.000
 4633.00    0.75252   0.81380    0.000
 4634.00    0.75619   0.81036    0.000
 4635.00    0.76923   0.80569    0.000
 4636.00    0.81322   0.80014    0.000
 4637.00    0.82841   0.79424    0.000
 4638.00    0.84122   0.78898    0.000
 4639.00    0.84709   0.78541    0.000
 4640.00    0.83278   0.78417    0.000
 4641.00    0.82580   0.78486    0.000
 4642.00    0.80413   0.78571    0.000
 4643.00    0.77354   0.78467    0.000
 4644.00    0.74827   0.77997    0.000
 4645.00    0.74729   0.77252    0.000
 4646.00    0.77973   0.76442    0.000
 4647.00    0.81703   0.75888    0.000
 4648.00    0.85899   0.75836    0.000
 4649.00    0.86888   0.76270    0.000
 4650.00    0.84839   0.77021    0.000
 4651.00    0.80515   0.77798    0.000
 4652.00    0.76509   0.78356    0.000
 4653.00    0.75684   0.78604    0.000
 4654.00    0.78998   0.78639    0.000
 4655.00    0.88144   0.78656    0.000
 4656.00    0.94185   0.78879    0.000
 4657.00    0.95070   0.79413    0.000
 4658.00    0.94657   0.80186    0.000
 4659.00    0.88307   0.80941    0.000
 4660.00    0.82242   0.81404    0.000
 4661.00    0.80573   0.81338    0.000
 4662.00    0.78563   0.80762    0.000
 4663.00    0.76068   0.79822    0.000
 4664.00    0.75203   0.78648    0.000
 4665.00    0.75030   0.77410    0.000
 4666.00    0.75250   0.76256    0.000
 4667.00    0.74727   0.75348    0.000
 4668.00    0.75090   0.74892    0.000
 4669.00    0.75333   0.74960    0.000
 4670.00    0.74959   0.75460    0.000
 4671.00    0.75687   0.76142    0.000
 4672.00    0.76068   0.76770    0.000
 4673.00    0.77845   0.77188    0.000
 4674.00    0.78300   0.77442    0.000
 4675.00    0.77376   0.77592    0.000
 4676.00    0.77138   0.77636    0.000
 4677.00    0.77027   0.77540    0.000
 4678.00    0.76357   0.77220    0.000
 4679.00    0.76043   0.76698    0.000
 4680.00    0.75721   0.76101    0.000
 4681.00    0.75608   0.75559    0.000
 4682.00    0.75428   0.75150    0.000
 4683.00    0.75230   0.74894    0.000
 4684.00    0.75725   0.74726    0.000
 4685.00    0.75891   0.74589    0.000
 4686.00    0.76466   0.74518    0.000
 4687.00    0.75827   0.74557    0.000
 4688.00    0.76347   0.74748    0.000
 4689.00    0.75829   0.75061    0.000
 4690.00    0.75061   0.75411    0.000
 4691.00    0.75524   0.75735    0.000
 4692.00    0.75630   0.76027    0.000
 4693.00    0.74786   0.76319    0.000
 4694.00    0.75021   0.76581    0.000
 4695.00    0.74382   0.76722    0.000
 4696.00    0.74347   0.76654    0.000
 4697.00    0.75278   0.76324    0.000
 4698.00    0.76361   0.75779    0.000
 4699.00    0.78114   0.75129    0.000
 4700.00    0.78134   0.74552    0.000
 4701.00    0.77516   0.74143    0.000
 4702.00    0.76047   0.73912    0.000
 4703.00    0.72932   0.73854    0.000
 4704.00    0.71539   0.73915    0.000
 4705.00    0.71084   0.74004    0.000
 4706.00    0.71524   0.74034    0.000
 4707.00    0.72263   0.73964    0.000
 4708.00    0.73722   0.73838    0.000
 4709.00    0.80370   0.73767    0.000
 4710.00    0.97789   0.73793    0.000
 4711.00    1.08908   0.73876    0.000
 4712.00    1.07740   0.73932    0.000
 4713.00    1.01520   0.73942    0.000
 4714.00    0.85899   0.73969    0.000
 4715.00    0.73604   0.74132    0.000
 4716.00    0.71062   0.74515    0.000
 4717.00    0.70861   0.75098    0.000
 4718.00    0.71524   0.75755    0.000
 4719.00    0.71323   0.76316    0.000
 4720.00    0.70280   0.76699    0.000
 4721.00    0.68976   0.76865    0.000
 4722.00    0.69409   0.76838    0.000
 4723.00    0.69745   0.76663    0.000
 4724.00    0.68974   0.76361    0.000
 4725.00    0.70117   0.75860    0.000
 4726.00    0.69735   0.75103    0.000
 4727.00    0.69672   0.74118    0.000
 4728.00    0.69404   0.73074    0.000
 4729.00    0.69490   0.72277    0.000
 4730.00    0.69688   0.71889    0.000
 4731.00    0.70313   0.71941    0.000
 4732.00    0.69942   0.72302    0.000
 4733.00    0.70841   0.72752    0.000
 4734.00    0.70291   0.73135    0.000
 4735.00    0.69416   0.73389    0.000
 4736.00    0.69385   0.73535    0.000
 4737.00    0.70414   0.73655    0.000
 4738.00    0.71222   0.73771    0.000
 4739.00    0.71307   0.73874    0.000
 4740.00    0.70148   0.73923    0.000
 4741.00    0.69669   0.73877    0.000
 4742.00    0.68868   0.73800    0.000
 4743.00    0.68527   0.73771    0.000
 4744.00    0.68547   0.73825    0.000
 4745.00    0.68986   0.73982    0.000
 4746.00    0.69002   0.74198    0.000
 4747.00    0.68420   0.74435    0.000
 4748.00    0.68267   0.74630    0.000
 4749.00    0.68567   0.74736    0.000
 4750.00    0.69596   0.74710    0.000
 4751.00    0.70815   0.74507   66.940
 4752.00    0.71542   0.74138   66.572
 4753.00    0.72994   0.73681   65.893
 4754.00    0.73624   0.73224   65.583
 4755.00    0.72216   0.72875   66.225
 4756.00    0.70117   0.72669   67.209
 4757.00    0.68228   0.72575   68.091
 4758.00    0.67534   0.72514   -1.000
 4759.00    0.67776   0.72404   68.290
 4760.00    0.68575   0.72169   67.869
 4761.00    0.69178   0.71747   67.581
 4762.00    0.69217   0.71159   67.528
 4763.00    0.69336   0.70463   67.470
 4764.00    0.68185   0.69779   68.009
 4765.00    0.67521   0.69273   68.327
 4766.00    0.68483   0.69045   67.820
 4767.00    0.69880   0.69136   67.132
 4768.00    0.69809   0.69490   67.157
 4769.00    0.69493   0.69981   67.289
 4770.00    0.68870   0.70410   67.566
 4771.00    0.67936   0.70707   68.031
 4772.00    0.68241   0.70896   67.857
 4773.00    0.68145   0.71090   67.891
 4774.00    0.68491   0.71365   67.695
 4775.00    0.68711   0.71648   67.582
 4776.00    0.69033   0.71856   67.419
 4777.00    0.69203   0.71913   67.310
 4778.00    0.68270   0.71797   67.758
 4779.00    0.68266   0.71528   67.745
 4780.00    0.68658   0.71130   67.543
 4781.00    0.68304   0.70631   67.714
 4782.00    0.68293   0.70099   67.710
 4783.00    0.67662   0.69605   68.006
 4784.00    0.67519   0.69238   68.047
 4785.00    0.67870   0.69045   67.853
 4786.00    0.68250   0.69010   67.640
 4787.00    0.68517   0.69079   67.489
 4788.00    0.68363   0.69223   67.541
 4789.00    0.68257   0.69439   67.572
 4790.00    0.67987   0.69773   67.669
 4791.00    0.68155   0.70264   67.604
 4792.00    0.68254   0.70908   67.527
 4793.00    0.68480   0.71646   67.402
 4794.00    0.68071   0.72314   67.591
 4795.00    0.68031   0.72754   67.589
 4796.00    0.67566   0.72839   -1.000
 4797.00    0.67511   0.72567   -1.000
 4798.00    0.68091   0.72084   67.503
 4799.00    0.68855   0.71632   67.116
 4800.00    0.68998   0.71402   67.066
 4801.00    0.68847   0.71459   67.115
 4802.00    0.69580   0.71683   66.720
 4803.00    0.68772   0.71883   67.109
 4804.00    0.67999   0.71844   67.477
 4805.00    0.67231   0.71537   67.813
 4806.00    0.68041   0.71083   67.415
 4807.00    0.68752   0.70633   67.067
 4808.00    0.68146   0.70313   67.362
 4809.00    0.68684   0.70206   67.096
 4810.00    0.68271   0.70275   67.268
 4811.00    0.67790   0.70416   67.501
 4812.00    0.68342   0.70577   67.209
 4813.00    0.69005   0.70727   66.870
 4814.00    0.70193   0.70890   66.301
 4815.00    0.69757   0.71107   66.470
 4816.00    0.68720   0.71373   66.969
 4817.00    0.68831   0.71648   66.875
 4818.00    0.68086   0.71867   67.222
 4819.00    0.67926   0.71941   67.296
 4820.00    0.67531   0.71797   67.482
 4821.00    0.67534   0.71402   67.466
 4822.00    0.68221   0.70819   67.084
 4823.00    0.69021   0.70200   66.698
 4824.00    0.69030   0.69723   66.649
 4825.00    0.69463   0.69497   66.436
 4826.00    0.69065   0.69485   66.620
 4827.00    0.69697   0.69549   66.301
 4828.00    0.69571   0.69506   66.319
 4829.00    0.69773   0.69320   66.200
 4830.00    0.70284   0.69054   65.932
 4831.00    0.69782   0.68794   66.158
 4832.00    0.69843   0.68628   66.119
 4833.00    0.70365   0.68650   65.829
 4834.00    0.70970   0.68854   65.519
 4835.00    0.70642   0.69141   65.649
 4836.00    0.71331   0.69364   65.305
 4837.00    0.71956   0.69417   64.998
 4838.00    0.71971   0.69277   64.980
 4839.00    0.72046   0.68998   64.910
 4840.00    0.72664   0.68688   64.609
 4841.00    0.73761   0.68431   -1.000
 4842.00    0.74491   0.68275   -1.000
 4843.00    0.75438   0.68243   -1.000
 4844.00    0.76721   0.68330   -1.000
 4845.00    0.76842   0.68519   -1.000
 4846.00    0.77742   0.68721   -1.000
 4847.00    0.78088   0.68821   -1.000
 4848.00    0.79802   0.68789   -1.000
 4849.00    0.82271   0.68651   -1.000
 4850.00    0.84611   0.68471   -1.000
 4851.00    0.85951   0.68223   -1.000
 4852.00    0.90785   0.67857   -1.000
 4853.00    0.96631   0.67319   -1.000
 4854.00    1.05903   0.66595   -1.000
 4855.00    1.24299   0.65728   -1.000
 4856.00    2.22072   0.64726   -1.000
 4857.00   12.14878   0.63577    0.000
 4858.00   49.52326   0.62180    0.000
 4859.00   84.68356   0.60520    0.000
 4860.00   92.17442   0.58798    0.000
 4861.00   81.58509   0.57403    0.000
 4862.00   44.96859   0.56820    0.000
 4863.00    9.91468   0.57231    0.000
 4864.00    1.89665   0.58471    0.000
 4865.00    1.22498   0.60137    0.000
 4866.00    1.07414   0.61811    0.000
 4867.00    0.97946   0.63143    0.000
 4868.00    0.92079   0.63959    0.000
 4869.00    0.88035   0.64238    0.000
 4870.00    0.84547   0.64111    0.000
 4871.00    0.82650   0.63801   -1.000
 4872.00    0.81118   0.63626   -1.000
 4873.00    0.79502   0.63809   -1.000
 4874.00    0.78405   0.64357   -1.000
 4875.00    0.77456   0.65108   -1.000
 4876.00    0.76538   0.65851   -1.000
 4877.00    0.76625   0.66477   -1.000
 4878.00    0.77717   0.66936   -1.000
 4879.00    0.78457   0.67191   -1.000
 4880.00    0.78197   0.67240   -1.000
 4881.00    0.76664   0.67093   -1.000
 4882.00    0.73348   0.66817   -1.000
 4883.00    0.71048   0.66475   -1.000
 4884.00    0.70568   0.66093   -1.000
 4885.00    0.70428   0.65663   -1.000
 4886.00    0.69641   0.65215   -1.000
 4887.00    0.69761   0.64806   -1.000
 4888.00    0.70432   0.64449   -1.000
 4889.00    0.70568   0.64122   -1.000
 4890.00    0.70092   0.63878   -1.000
 4891.00    0.69642   0.63874   -1.000
 4892.00    0.68844   0.64323   65.589
 4893.00    0.68723   0.65319   65.644
 4894.00    0.68575   0.66670   65.737
 4895.00    0.68327   0.68066   65.865
 4896.00    0.69042   0.69130   65.526
 4897.00    0.68745   0.69717   65.667
 4898.00    0.67872   0.69815   66.127
 4899.00    0.68244   0.69534   65.962
 4900.00    0.69178   0.69039   65.507
 4901.00    0.69853   0.68533   65.221
 4902.00    0.69337   0.68145   65.491
 4903.00    0.69065   0.67941   65.638
 4904.00    0.69172   0.67948   65.620
 4905.00    0.69424   0.68146   65.508
 4906.00    0.68686   0.68381   65.898
 4907.00    0.67578   0.68458   66.442
 4908.00    0.67345   0.68241   66.579
 4909.00    0.67946   0.67796   66.304
 4910.00    0.68100   0.67316   66.253
 4911.00    0.68185   0.67016   66.235
 4912.00    0.68243   0.67019   66.219
 4913.00    0.67060   0.67246   66.821
 4914.00    0.67825   0.67518    0.000
 4915.00    0.68468   0.67601    0.000
 4916.00    0.67643   0.67262    0.000
 4917.00    0.70848   0.66381    0.000
 4918.00    0.94924   0.65029    0.000
 4919.00    1.45763   0.63502    0.000
 4920.00    1.71473   0.62288    0.000
 4921.00    1.71920   0.61736    0.000
 4922.00    1.49773   0.61971    0.000
 4923.00    1.01893   0.62774    0.000
 4924.00    0.76002   0.63854    0.000
 4925.00    0.70841   0.64944    0.000
 4926.00    0.69290   0.65993    0.000
 4927.00    0.70384   0.66981    0.000
 4928.00    0.71506   0.67857    0.000
 4929.00    0.72178   0.68527   64.602
 4930.00    0.72734   0.68862   64.378
 4931.00    0.73095   0.68807   -1.000
 4932.00    0.70714   0.68398   65.308
 4933.00    0.69922   0.67769   65.707
 4934.00    0.70539   0.67070   65.440
 4935.00    0.71007   0.66422   -1.000
 4936.00    0.71184   0.65825   -1.000
 4937.00    0.71403   0.65223   -1.000
 4938.00    0.72370   0.64698   -1.000
 4939.00    0.72784   0.64460   -1.000
 4940.00    0.73203   0.64674   -1.000
 4941.00    0.73702   0.65313   -1.000
 4942.00    0.71444   0.66138   -1.000
 4943.00    0.70660   0.66925    0.000
 4944.00    0.76619   0.67507    0.000
 4945.00    0.78033   0.67866    0.000
 4946.00    0.79728   0.68089    0.000
 4947.00    0.81055   0.68311    0.000
 4948.00    0.83495   0.68588    0.000
 4949.00    0.87638   0.68873    0.000
 4950.00    0.90542   0.69063    0.000
 4951.00    0.96991   0.69052    0.000
 4952.00    1.07917   0.68732    0.000
 4953.00    1.35537   0.68020    0.000
 4954.00    3.54353   0.66897    0.000
 4955.00   21.52630   0.65419    0.000
 4956.00   61.10552   0.63801    0.000
 4957.00   83.40150   0.62399    0.000
 4958.00   84.77069   0.61563    0.000
 4959.00   66.37216   0.61545    0.000
 4960.00   26.14124   0.62188    0.000
 4961.00    4.17962   0.63055    0.000
 4962.00    1.40937   0.63734    0.000
 4963.00    1.09998   0.64006    0.000
 4964.00    0.98661   0.63867    0.000
 4965.00    0.92673   0.63445    0.000
 4966.00    0.87743   0.62974    0.000
 4967.00    0.84962   0.62655    0.000
 4968.00    0.83707   0.62599    0.000
 4969.00    0.81566   0.62824    0.000
 4970.00    0.80855   0.63295    0.000
 4971.00    0.79918   0.63882    0.000
 4972.00    0.79960   0.64469   -1.000
 4973.00    0.78893   0.64928   -1.000
 4974.00    0.78835   0.65182   -1.000
 4975.00    0.78929   0.65194   -1.000
 4976.00    0.78398   0.64961   -1.000
 4977.00    0.78716   0.64498   -1.000
 4978.00    0.78919   0.63846   -1.000
 4979.00    0.79660   0.63048   -1.000
 4980.00    0.80409   0.62147   -1.000
 4981.00    0.82003   0.61204   -1.000
 4982.00    0.88306   0.60318   -1.000
 4983.00    0.99786   0.59709   -1.000
 4984.00    1.05727   0.59550   -1.000
 4985.00    1.06371   0.59905   -1.000
 4986.00    1.01902   0.60610   -1.000
 4987.00    0.93528   0.61436   -1.000
 4988.00    0.88814   0.62122   -1.000
 4989.00    0.89462   0.62546   -1.000
 4990.00    0.91375   0.62712   -1.000
 4991.00    0.93743   0.62748   -1.000
 4992.00    0.96592   0.62775   -1.000
 4993.00    0.99825   0.62846   -1.000
 4994.00    1.02949   0.62941   -1.000
 4995.00    1.08439   0.63003    0.000
 4996.00    1.15756   0.62961    0.000
 4997.00    1.23597   0.62749    0.000
 4998.00    1.37400   0.62303    0.000
 4999.00    1.57484   0.61643    0.000
 5000.00    1.92373   0.60903    0.000
 5001.00    2.83146   0.60246    0.000
 5002.00   10.64156   0.59769    0.000
 5003.00   70.98106   0.59431    0.000
 5004.00  191.15677   0.59164    0.000
 5005.00  253.06749   0.58931    0.000
 5006.00  254.18375   0.58784    0.000
 5007.00  192.07617   0.58817    0.000
 5008.00   70.57354   0.59045    0.000
 5009.00   10.06893   0.59356    0.000
 5010.00    2.77629   0.59502    0.000
 5011.00    2.04111   0.59336   -1.000
 5012.00    2.30939   0.58849   -1.000
 5013.00    3.04334   0.58207   -1.000
 5014.00    3.25318   0.57649   -1.000
 5015.00    3.06468   0.57380   -1.000
 5016.00    2.36955   0.57463   -1.000
 5017.00    1.38571   0.57804   -1.000
 5018.00    1.01371   0.58252   -1.000
 5019.00    0.95213   0.58660   -1.000
 5020.00    0.91132   0.58948   -1.000
 5021.00    0.88327   0.59102   -1.000
 5022.00    0.85973   0.59191   -1.000
 5023.00    0.83617   0.59303   -1.000
 5024.00    0.81846   0.59511   -1.000
 5025.00    0.80391   0.59770   -1.000
 5026.00    0.78904   0.60000   -1.000
 5027.00    0.78181   0.60162   -1.000
 5028.00    0.77323   0.60330   -1.000
 5029.00    0.77690   0.60629   -1.000
 5030.00    0.77616   0.61092   -1.000
 5031.00    0.76898   0.61645   -1.000
 5032.00    0.75694   0.62103   -1.000
 5033.00    0.73994   0.62304   -1.000
 5034.00    0.73380   0.62128   -1.000
 5035.00    0.72391   0.61582   -1.000
 5036.00    0.72174   0.60770   -1.000
 5037.00    0.72894   0.59850   -1.000
 5038.00    0.76667   0.58928   -1.000
 5039.00    0.79572   0.58044   -1.000
 5040.00    0.79271   0.57308   -1.000
 5041.00    0.75659   0.56972   -1.000
 5042.00    0.70703   0.57239   -1.000
 5043.00    0.68370   0.58126   -1.000
 5044.00    0.72069   0.59344   -1.000
 5045.00    0.78739   0.60539   -1.000
 5046.00    0.81211   0.61315   -1.000
 5047.00    0.79967   0.61517   -1.000
 5048.00    0.75716   0.61170   -1.000
 5049.00    0.68567   0.60521   -1.000
 5050.00    0.65663   0.59863   -1.000
 5051.00    0.64645   0.59492   -1.000
 5052.00    0.66614   0.59500   -1.000
 5053.00    0.71399   0.59829   -1.000
 5054.00    0.73645   0.60342   -1.000
 5055.00    0.73392   0.60899   -1.000
 5056.00    0.71361   0.61402   -1.000
 5057.00    0.67021   0.61840   -1.000
 5058.00    0.64495   0.62225   67.874
 5059.00    0.64158   0.62549   68.047
 5060.00    0.63638   0.62756   68.296
 5061.00    0.62899   0.62754   68.706
 5062.00    0.63119   0.62457   68.571
 5063.00    0.63750   0.61833   68.229
 5064.00    0.62801   0.60988   68.739
 5065.00    0.62763   0.60123   68.764
 5066.00    0.62614   0.59454   68.827
 5067.00    0.62913   0.59077   68.659
 5068.00    0.62752   0.58947   68.754
 5069.00    0.62795   0.58983   68.714
 5070.00    0.62588   0.59095   68.836
 5071.00    0.62374   0.59206   68.942
 5072.00    0.62842   0.59277   68.691
 5073.00    0.62841   0.59329   68.689
 5074.00    0.62304   0.59372   68.972
 5075.00    0.62025   0.59344   69.120
 5076.00    0.62331   0.59174   68.938
 5077.00    0.62022   0.58815   69.118
 5078.00    0.61233   0.58279   69.559
 5079.00    0.61315   0.57624   69.509
 5080.00    0.61534   0.57013   -1.000
 5081.00    0.61452   0.56610   -1.000
 5082.00    0.61728   0.56520   -1.000
 5083.00    0.61700   0.56723   -1.000
 5084.00    0.61187   0.57158   -1.000
 5085.00    0.61427   0.57718   69.411
 5086.00    0.61632   0.58305   69.324
 5087.00    0.61641   0.58821   69.318
 5088.00    0.61772   0.59236   69.247
 5089.00    0.61105   0.59570   69.627
 5090.00    0.61089   0.59860   69.639
 5091.00    0.61679   0.60127   69.311
 5092.00    0.61089   0.60345   69.646
 5093.00    0.60873   0.60428   69.770
 5094.00    0.60474   0.60276   70.012
 5095.00    0.59922   0.59840   70.325
 5096.00    0.59272   0.59165   70.705
 5097.00    0.59425   0.58439   70.610
 5098.00    0.60298   0.57826   70.105
 5099.00    0.60155   0.57443   70.208
 5100.00    0.60438   0.57328   70.024
 5101.00    0.61411   0.57445   -1.000
 5102.00    0.60924   0.57647   69.778
 5103.00    0.60237   0.57786   70.193
 5104.00    0.60267   0.57769   70.159
 5105.00    0.60603   0.57597   69.973
 5106.00    0.60743   0.57323   69.891
 5107.00    0.60038   0.57023   70.282
 5108.00    0.60707   0.56778   -1.000
 5109.00    0.60785   0.56669   -1.000
 5110.00    0.61017   0.56729   -1.000
 5111.00    0.61111   0.56957   -1.000
 5112.00    0.60166   0.57324   70.224
 5113.00    0.60024   0.57786   70.307
 5114.00    0.59733   0.58306   70.485
 5115.00    0.60403   0.58839   70.101
 5116.00    0.60582   0.59305   69.959
 5117.00    0.60371   0.59620   70.073
 5118.00    0.59932   0.59707   70.321
 5119.00    0.59421   0.59505   70.627
 5120.00    0.59275   0.59012   70.709
 5121.00    0.59217   0.58304   70.748
 5122.00    0.58751   0.57480   70.995
 5123.00    0.59492   0.56655   70.552
 5124.00    0.60141   0.55959   -1.000
 5125.00    0.60021   0.55467   -1.000
 5126.00    0.59449   0.55210   -1.000
 5127.00    0.59756   0.55156   -1.000
 5128.00    0.59138   0.55249   -1.000
 5129.00    0.59070   0.55462   70.708
 5130.00    0.59078   0.55796   70.687
 5131.00    0.59352   0.56254   70.511
 5132.00    0.58843   0.56792   70.795
 5133.00    0.58878   0.57295   70.764
 5134.00    0.59488   0.57665   70.348
 5135.00    0.59211   0.57846   70.522
 5136.00    0.58834   0.57815   70.708
 5137.00    0.58847   0.57579   70.670
 5138.00    0.58943   0.57201   70.614
 5139.00    0.59905   0.56808   70.009
 5140.00    0.59171   0.56516   70.418
 5141.00    0.58449   0.56340   70.845
 5142.00    0.59075   0.56227   70.464
 5143.00    0.59076   0.56111   70.411
 5144.00    0.59729   0.55961   -1.000
 5145.00    0.60074   0.55775   -1.000
 5146.00    0.59672   0.55558   -1.000
 5147.00    0.58835   0.55354   70.455
 5148.00    0.59713   0.55216   -1.000
 5149.00    0.59981   0.55122   -1.000
 5150.00    0.59148   0.55000   -1.000
 5151.00    0.59130   0.54819   -1.000
 5152.00    0.59466   0.54636   -1.000
 5153.00    0.59729   0.54581   -1.000
 5154.00    0.58937   0.54765   -1.000
 5155.00    0.60205   0.55266   -1.000
 5156.00    0.60313   0.56035   -1.000
 5157.00    0.59792   0.56909   69.693
 5158.00    0.59700   0.57664   69.755
 5159.00    0.59664   0.58145   69.754
 5160.00    0.59496   0.58269   69.804
 5161.00    0.58753   0.58007   70.230
 5162.00    0.58761   0.57335   70.238
 5163.00    0.58330   0.56250   70.482
 5164.00    0.57898   0.54762   70.698
 5165.00    0.57427   0.52958   -1.000
 5166.00    0.58023   0.51003   -1.000
 5167.00    0.58763   0.49201   -1.000
 5168.00    0.58696   0.47826   -1.000
 5169.00    0.57906   0.46999   -1.000
 5170.00    0.57749   0.46579   -1.000
 5171.00    0.58047   0.46377   -1.000
 5172.00    0.58247   0.46331   -1.000
 5173.00    0.58894   0.46608   -1.000
 5174.00    0.58844   0.47375   -1.000
 5175.00    0.58736   0.48552   -1.000
 5176.00    0.58672   0.49871   -1.000
 5177.00    0.58515   0.50937   -1.000
 5178.00    0.58582   0.51503   -1.000
 5179.00    0.58785   0.51433   -1.000
 5180.00    0.58737   0.50750   -1.000
 5181.00    0.58422   0.49626   -1.000
 5182.00    0.58114   0.48402   -1.000
 5183.00    0.58193   0.47509   -1.000
 5184.00    0.57998   0.47359   -1.000
 5185.00    0.58076   0.48089   -1.000
 5186.00    0.58099   0.49512   -1.000
 5187.00    0.58026   0.51141   -1.000
 5188.00    0.58602   0.52550   -1.000
 5189.00    0.60297   0.53441   -1.000
 5190.00    0.61055   0.53759    0.000
 5191.00    0.60511   0.53604    0.000
 5192.00    0.60916   0.53221    0.000
 5193.00    0.60180   0.52901    0.000
 5194.00    0.61221   0.52888    0.000
 5195.00    0.66832   0.53217    0.000
 5196.00    0.70772   0.53794    0.000
 5197.00    0.74814   0.54486    0.000
 5198.00    0.75421   0.55136    0.000
 5199.00    0.70632   0.55574    0.000
 5200.00    0.67533   0.55680    0.000
 5201.00    0.62603   0.55386    0.000
 5202.00    0.58766   0.54675    0.000
 5203.00    0.58239   0.53594    0.000
 5204.00    0.58141   0.52266    0.000
 5205.00    0.57843   0.50859    0.000
 5206.00    0.57010   0.49651   -1.000
 5207.00    0.56890   0.48845   -1.000
 5208.00    0.56784   0.48590   -1.000
 5209.00    0.57225   0.48935   -1.000
 5210.00    0.56964   0.49872   -1.000
 5211.00    0.57376   0.51253   -1.000
 5212.00    0.57599   0.52811   -1.000
 5213.00    0.57510   0.54196   70.231
 5214.00    0.57458   0.55186   70.246
 5215.00    0.56557   0.55746   70.795
 5216.00    0.57471   0.56048   70.220
 5217.00    0.57723   0.56316   70.015
 5218.00    0.57225   0.56689   70.327
 5219.00    0.57029   0.57130   70.416
 5220.00    0.57410   0.57471   70.174
 5221.00    0.57341   0.57514   70.187
 5222.00    0.57351   0.57121   70.156
 5223.00    0.57997   0.56277   69.722
 5224.00    0.58248   0.55128   69.591
 5225.00    0.57862   0.53965   69.784
 5226.00    0.57431   0.53143   -1.000
 5227.00    0.57829   0.52898   -1.000
 5228.00    0.57935   0.53278   -1.000
 5229.00    0.56908   0.54109   70.303
 5230.00    0.57078   0.55014   70.174
 5231.00    0.57326   0.55675   70.012
 5232.00    0.56989   0.55977   70.228
 5233.00    0.56700   0.56056   70.389
 5234.00    0.56833   0.56159   70.271
 5235.00    0.57329   0.56490   69.979
 5236.00    0.57039   0.57047   70.151
 5237.00    0.57140   0.57679   70.114
 5238.00    0.57376   0.58198   69.959
 5239.00    0.56625   0.58494   70.435
 5240.00    0.56908   0.58583   70.241
 5241.00    0.57161   0.58539   70.081
 5242.00    0.56830   0.58442   70.308
 5243.00    0.56637   0.58298   70.397
 5244.00    0.56312   0.58052   70.590
 5245.00    0.55956   0.57618   70.824
 5246.00    0.55777   0.56983   70.909
 5247.00    0.56534   0.56258   70.406
 5248.00    0.56853   0.55610   70.218
 5249.00    0.56256   0.55177   70.591
 5250.00    0.56356   0.54968   70.478
 5251.00    0.55854   0.54949   70.786
 5252.00    0.56421   0.55093   70.366
 5253.00    0.56802   0.55361   70.126
 5254.00    0.56340   0.55718   70.423
 5255.00    0.55883   0.56159   70.672
 5256.00    0.55849   0.56690   70.683
 5257.00    0.56115   0.57252   70.491
 5258.00    0.57048   0.57673   69.881
 5259.00    0.57515   0.57718   69.599
 5260.00    0.57590   0.57248   69.513
 5261.00    0.57736   0.56251   69.400
 5262.00    0.57136   0.54881   69.736
 5263.00    0.56300   0.53355   70.258
 5264.00    0.56936   0.51931   -1.000
 5265.00    0.57437   0.50779   -1.000
 5266.00    0.58320   0.49960   -1.000
 5267.00    0.62567   0.49424   -1.000
 5268.00    0.67757   0.49099   -1.000
 5269.00    0.68749   0.48944   -1.000
 5270.00    0.67422   0.49083   -1.000
 5271.00    0.64056   0.49693   -1.000
 5272.00    0.59511   0.50748   -1.000
 5273.00    0.57854   0.52068   -1.000
 5274.00    0.56908   0.53331   69.755
 5275.00    0.56512   0.54433   69.948
 5276.00    0.56369   0.55375   70.035
 5277.00    0.56386   0.56168   70.019
 5278.00    0.56185   0.56762   70.104
 5279.00    0.55440   0.57022   70.564
 5280.00    0.56304   0.56895   70.011
 5281.00    0.56006   0.56482   70.162
 5282.00    0.55549   0.56025   70.438
 5283.00    0.55522   0.55794   70.438
 5284.00    0.56373   0.55985   69.879
 5285.00    0.56752   0.56616   69.634
 5286.00    0.56261   0.57479   69.907
 5287.00    0.56419   0.58320   69.818
 5288.00    0.56239   0.58924   69.917
 5289.00    0.55722   0.59250   70.199
 5290.00    0.55585   0.59364   70.251
 5291.00    0.55928   0.59326   70.008
 5292.00    0.55962   0.59143   69.997
 5293.00    0.56165   0.58782   69.835
 5294.00    0.55463   0.58200   70.267
 5295.00    0.55268   0.57379   70.381
 5296.00    0.55988   0.56387   69.928
 5297.00    0.56058   0.55389   69.851
 5298.00    0.56034   0.54670   69.847
 5299.00    0.56653   0.54409   69.464
 5300.00    0.55784   0.54644   69.991
