###################################################################
## OUTPUT of StarlightChains_v04.for    [Cid@UFSC - 01/Apr/2007] ##
###################################################################

## Some input info
M33_LS3_20211119f_2.spec                 [arq_obs]
Base.BC03.N                              [arq_base]
Mask.EmLines_CHAOS_focusbluefit.gm       [arq_masks]
StCv04.C11.config                        [arq_config]
   45                                    [N_base]
    0                                    [N_YAV_components = # of components with extra extinction!]
    0                                    [i_FitPowerLaw (1/0 = Yes/No)]
-9.99                                    [alpha_PowerLaw]
CCM                                      [red_law_option]
 1.458241                                [q_norm = A(l_norm)/A(V)]

## (Re)Sampling Parameters
 3100.00                                 [l_ini (A)]
 5300.00                                 [l_fin (A)]
    1.00                                 [dl    (A)]     (OBS: dl_cushion =    50.00 A)

## Normalization info
 4020.00                                 [l_norm (A) - for base]
 4010.00                                 [llow_norm (A) - window for f_obs]
 4060.00                                 [lupp_norm (A) - window for f_obs]
5.510213E-16                             [fobs_norm (in input units)]

## S/N
 4730.00                                 [llow_SN (A) - window for S/N]
 4780.00                                 [lupp_SN (A) - window for S/N]
  26.266                                 [S/N in S/N window]
  34.374                                 [S/N in norm. window]
  19.035                                 [S/N_err in S/N window]
  24.911                                 [S/N_err in norm. window]
  1.0000                                 [fscale_chi2]

## etc...
    -2007203                             [idum_orig]
  1493                                   [NOl_eff]
  1448                                   [Nl_eff]
    45    NSIGMA                         [Ntot_cliped & clip_method]
   545580                                [Nglobal_steps]
   7                                     [N_chains]
   6                                     [NEX0s_base = N_base in EX0s-fits]
 0   0   1        2   2.0   3.343E+01    [Clip-Bug, RC-Crash & Burn-In warning-flags, n_censored_weights, wei_nsig_threshold & wei_limit]
    11      5.516      5.487      0.029  [idt_all, wdt_TotTime, wdt_UsrTime & wdt_SysTime (sec)]

## Synthesis Results - Best model ##

 1.21882E+00                             [chi2/Nl_eff]
     5.52867                             [adev (%)]

   103.48779                             [sum-of-x (%)]
 1.57178E-15                             [Flux_tot (units of input spectrum!)]
 2.04771E-11                             [Mini_tot (???)]
 1.03752E-11                             [Mcor_tot (???)]

 120.16                                  [v0_min  (km/s)]
  77.61                                  [vd_min  (km/s)]
 0.7549                                  [AV_min  (mag)]
 0.0000                                  [YAV_min (mag)]

# j     x_j(%)      Mini_j(%)     Mcor_j(%)     age_j(yr)     Z_j      (L/M)_j    YAV?  Mstars   component_j        a/Fe...       SSP_chi2r SSP_adev(%)   SSP_AV   SSP_x(%)
  1     70.8784     4.7191E-01    9.3140E-01    1.000000E+06  0.00400  1.114E-02    0   1.0000   age020_m42            0.0000     1.5157E+00     6.0611   1.4524   103.1445
  2      0.0000     0.0000E+00    0.0000E+00    3.160000E+06  0.00400  4.073E-02    0   0.9999   age045_m42            0.0000     5.2872E+00    11.6290   0.4047   117.2054
  3      0.0000     0.0000E+00    0.0000E+00    5.010000E+06  0.00400  2.534E-02    0   0.9488   age055_m42            0.0000     3.1263E+00     8.8707   0.8500   111.1503
  4      0.0000     0.0000E+00    0.0000E+00    1.000000E+07  0.00400  1.271E-02    0   0.8862   age070_m42            0.0000     3.9770E+00     9.8827   0.1817   114.1567
  5      0.0000     0.0000E+00    0.0000E+00    2.512000E+07  0.00400  5.070E-03    0   0.8174   age090_m42            0.0000     4.3144E+00    10.3986   0.0304   115.9517
  6      0.0000     0.0000E+00    0.0000E+00    4.000000E+07  0.00400  3.505E-03    0   0.7851   age104_m42            0.0000     5.2440E+00    11.7224  -0.3241   118.6221
  7      0.0000     0.0000E+00    0.0000E+00    1.015200E+08  0.00400  2.268E-03    0   0.7207   age116_m42            0.0000     1.5737E+01    20.7944  -0.4953   126.1288
  8      0.0000     0.0000E+00    0.0000E+00    2.861200E+08  0.00400  1.079E-03    0   0.6613   age125_m42            0.0000     1.8649E+01    23.2458  -1.0000   128.1262
  9      0.0000     0.0000E+00    0.0000E+00    6.405400E+08  0.00400  5.077E-04    0   0.6197   age132_m42            0.0000     2.1195E+01    23.5921  -1.0000   126.2009
 10      0.0000     0.0000E+00    0.0000E+00    9.047900E+08  0.00400  3.535E-04    0   0.6024   age135_m42            0.0000     2.0429E+01    22.8173  -1.0000   121.6485
 11      0.0000     0.0000E+00    0.0000E+00    1.434000E+09  0.00400  1.910E-04    0   0.5716   age139_m42            0.0000     2.2917E+01    24.3366  -1.0000   110.2426
 12      0.0000     0.0000E+00    0.0000E+00    2.500000E+09  0.00400  9.818E-05    0   0.5463   age150_m42            0.0000     2.5342E+01    26.1758  -1.0000   100.8737
 13      0.0000     0.0000E+00    0.0000E+00    5.000000E+09  0.00400  4.718E-05    0   0.5228   age161_m42            0.0000     2.7941E+01    28.0063  -1.0000    94.9822
 14      0.0000     0.0000E+00    0.0000E+00    1.100000E+10  0.00400  2.205E-05    0   0.4980   age185_m42            0.0000     3.4328E+01    31.5431  -1.0000    87.3798
 15      0.0000     0.0000E+00    0.0000E+00    1.300000E+10  0.00400  1.883E-05    0   0.4927   age193_m42            0.0000     3.4896E+01    31.8413  -1.0000    86.9370
 16      0.0000     0.0000E+00    0.0000E+00    1.000000E+06  0.02000  1.989E-02    0   1.0000   age020_m62            0.0000     1.6251E+00     6.2601   1.4191   103.8734
 17     24.7579     4.8683E-02    9.4719E-02    3.160000E+06  0.02000  3.772E-02    0   0.9858   age045_m62            0.0000     1.8699E+00     6.7694   1.2593   106.5133
 18      0.0000     0.0000E+00    0.0000E+00    5.010000E+06  0.02000  3.227E-02    0   0.9342   age055_m62            0.0000     4.6095E+00    11.1223   0.6563   114.1654
 19      0.0000     0.0000E+00    0.0000E+00    1.000000E+07  0.02000  1.011E-02    0   0.8751   age070_m62            0.0000     2.1809E+00     7.1958   0.3765   110.7964
 20      0.0000     0.0000E+00    0.0000E+00    2.512000E+07  0.02000  4.206E-03    0   0.8099   age090_m62            0.0000     2.6048E+00     8.0267   0.2037   111.4630
 21      0.0000     0.0000E+00    0.0000E+00    4.000000E+07  0.02000  3.373E-03    0   0.7799   age104_m62            0.0000     6.3655E+00    12.8965  -0.1110   119.1853
 22      0.0000     0.0000E+00    0.0000E+00    1.015200E+08  0.02000  1.878E-03    0   0.7221   age116_m62            0.0000     1.4294E+01    19.9259  -0.4219   126.4624
 23      0.0000     0.0000E+00    0.0000E+00    2.861200E+08  0.02000  8.869E-04    0   0.6700   age125_m62            0.0000     2.3426E+01    25.9008  -0.9737   132.4922
 24      0.0000     0.0000E+00    0.0000E+00    6.405400E+08  0.02000  3.657E-04    0   0.6322   age132_m62            0.0000     2.4900E+01    25.3874  -1.0000   123.5760
 25      0.0000     0.0000E+00    0.0000E+00    9.047900E+08  0.02000  2.312E-04    0   0.6152   age135_m62            0.0000     2.5471E+01    25.5776  -1.0000   115.5277
 26      0.0000     0.0000E+00    0.0000E+00    1.434000E+09  0.02000  1.168E-04    0   0.5865   age139_m62            0.0000     2.7658E+01    27.4628  -1.0000   102.5014
 27      0.0000     0.0000E+00    0.0000E+00    2.500000E+09  0.02000  5.505E-05    0   0.5610   age150_m62            0.0000     3.4494E+01    31.3767  -1.0000    91.9412
 28      0.0000     0.0000E+00    0.0000E+00    5.000000E+09  0.02000  2.596E-05    0   0.5353   age161_m62            0.0000     4.3290E+01    35.4567  -1.0000    84.1122
 29      0.0022     1.4271E-02    1.4373E-02    1.100000E+10  0.02000  1.169E-05    0   0.5103   age185_m62            0.0000     5.3074E+01    39.3574  -1.0000    77.0278
 30      0.0000     0.0000E+00    0.0000E+00    1.300000E+10  0.02000  9.691E-06    0   0.5047   age193_m62            0.0000     5.4450E+01    39.8655  -1.0000    76.2056
 31      0.0000     0.0000E+00    0.0000E+00    1.000000E+06  0.05000  2.651E-02    0   0.9998   age020_m72            0.0000     1.6875E+00     6.3710   1.3926   104.7766
 32      0.0000     0.0000E+00    0.0000E+00    3.160000E+06  0.05000  4.817E-02    0   0.9577   age045_m72            0.0000     2.7805E+00     8.4788   1.0346   110.4265
 33      0.0000     0.0000E+00    0.0000E+00    5.010000E+06  0.05000  3.101E-02    0   0.9147   age055_m72            0.0000     3.0194E+00     8.7456   0.7441   112.6596
 34      0.0000     0.0000E+00    0.0000E+00    1.000000E+07  0.05000  8.954E-03    0   0.8524   age070_m72            0.0000     2.9110E+00     8.4604   0.9194   111.5147
 35      0.0000     0.0000E+00    0.0000E+00    2.512000E+07  0.05000  4.207E-03    0   0.7902   age090_m72            0.0000     5.1875E+00    11.7825   0.4463   116.8697
 36      0.0000     0.0000E+00    0.0000E+00    4.000000E+07  0.05000  3.198E-03    0   0.7618   age104_m72            0.0000     1.0399E+01    16.5359  -0.0668   122.8588
 37      0.0000     0.0000E+00    0.0000E+00    1.015200E+08  0.05000  1.716E-03    0   0.7092   age116_m72            0.0000     1.6519E+01    21.7228  -0.3576   126.6812
 38      0.0000     0.0000E+00    0.0000E+00    2.861200E+08  0.05000  7.047E-04    0   0.6618   age125_m72            0.0000     2.4401E+01    25.9252  -1.0000   129.5928
 39      0.0000     0.0000E+00    0.0000E+00    6.405400E+08  0.05000  2.633E-04    0   0.6253   age132_m72            0.0000     2.7366E+01    26.3765  -1.0000   115.2630
 40      0.0000     0.0000E+00    0.0000E+00    9.047900E+08  0.05000  1.484E-04    0   0.6088   age135_m72            0.0000     3.1013E+01    28.8317  -1.0000   100.8055
 41      0.0000     0.0000E+00    0.0000E+00    1.434000E+09  0.05000  7.827E-05    0   0.5847   age139_m72            0.0000     3.8396E+01    33.0264  -1.0000    89.4076
 42      0.0000     0.0000E+00    0.0000E+00    2.500000E+09  0.05000  3.759E-05    0   0.5583   age150_m72            0.0000     4.5912E+01    36.5546  -1.0000    81.9404
 43      0.0000     0.0000E+00    0.0000E+00    5.000000E+09  0.05000  1.548E-05    0   0.5320   age161_m72            0.0000     5.5332E+01    40.2176  -1.0000    73.5062
 44      3.8697     4.3940E+01    4.3968E+01    1.100000E+10  0.05000  6.532E-06    0   0.5070   age185_m72            0.0000     6.5710E+01    43.7914  -1.0000    65.4709
 45      3.9796     5.5525E+01    5.4991E+01    1.300000E+10  0.05000  5.316E-06    0   0.5018   age193_m72            0.0000     6.9163E+01    44.8737  -1.0000    63.0947


## Synthesis Results - Average & Chains ##

# j      x_j: min, <> & last-chain-values for 1 ...  7 chains
  1     70.8784     66.8870     69.0706     72.2260     67.6025     68.0764     70.4427     66.6653     69.9310
  2      0.0000      0.0281      0.0000      0.0000      0.0000      0.0000      0.0000      0.0000      0.0000
  3      0.0000      0.0911      0.0398      0.0000      0.0000      0.0000      0.0000      0.0000      0.0000
  4      0.0000      0.0246      0.0000      0.0000      0.0000      0.0000      0.0000      0.0000      0.0000
  5      0.0000      0.0292      0.0108      0.0000      0.0000      0.0000      0.0000      0.0000      0.0000
  6      0.0000      0.0244      0.0000      0.0000      0.0000      0.0000      0.0000      0.0000      0.0000
  7      0.0000      0.0057      0.0000      0.0000      0.0000      0.0000      0.0000      0.0000      0.0000
  8      0.0000      0.0064      0.0000      0.0000      0.0000      0.0000      0.0000      0.0000      0.0000
  9      0.0000      0.0054      0.0000      0.0000      0.0000      0.0000      0.0000      0.0000      0.0000
 10      0.0000      0.0061      0.0000      0.0000      0.0000      0.0000      0.0000      0.0000      0.0000
 11      0.0000      0.0133      0.0000      0.0000      0.0444      0.0000      0.1087      0.0000      0.0000
 12      0.0000      0.0340      0.0000      0.0000      0.0152      0.0000      0.0000      0.0000      0.0000
 13      0.0000      0.0263      0.0000      0.0000      0.0000      0.0000      0.0558      0.0000      0.0000
 14      0.0000      0.0464      0.0027      0.0000      0.0000      0.0000      0.0190      0.0562      0.0000
 15      0.0000      0.1020      0.0000      0.0000      0.0000      0.0000      0.0000      0.0559      0.0000
 16      0.0000      1.3466      0.0000      0.0000      1.2203      0.0000      1.2937      0.0000      0.0000
 17     24.7579     24.3496     24.9797     22.2181     25.4721     26.5023     22.2631     28.1560     23.4773
 18      0.0000      0.0438      0.0000      0.0000      0.0000      0.0000      0.0000      0.0000      0.0000
 19      0.0000      0.1237      0.0000      0.0000      0.0000      0.0000      0.0000      0.0000      0.0541
 20      0.0000      0.1639      0.0000      0.0000      0.0000      0.0000      0.0000      0.0000      0.0000
 21      0.0000      0.0142      0.0000      0.0000      0.0000      0.0000      0.0000      0.0000      0.0000
 22      0.0000      0.0068      0.0000      0.0000      0.0000      0.0000      0.0000      0.0000      0.0000
 23      0.0000      0.0112      0.0000      0.0000      0.0000      0.0000      0.0000      0.0000      0.0000
 24      0.0000      0.0048      0.0000      0.0000      0.0000      0.0000      0.0000      0.0000      0.0000
 25      0.0000      0.0095      0.0000      0.0000      0.0000      0.0000      0.0000      0.0000      0.0000
 26      0.0000      0.0382      0.2657      0.0000      0.0000      0.0000      0.1190      0.0000      0.0000
 27      0.0000      0.0567      0.0000      0.0000      0.0000      0.0000      0.0000      0.0000      0.0000
 28      0.0000      0.1395      0.0000      0.0000      0.0000      0.3937      0.0361      0.3713      0.0705
 29      0.0022      1.2637      1.1429      1.4429      1.2321      0.3553      1.3586      0.8733      1.4764
 30      0.0000      0.4877      0.8034      0.9264      0.0000      0.2118      0.6529      0.0639      0.0000
 31      0.0000      0.8795      0.0000      0.0000      0.3619      0.1475      0.3579      0.0000      0.8457
 32      0.0000      0.3714      0.0000      0.0000      0.3259      0.0000      0.0000      0.0000      0.0000
 33      0.0000      0.0998      0.0000      0.0000      0.0000      0.2568      0.0000      0.0000      0.0000
 34      0.0000      0.0852      0.0000      0.0000      0.0000      0.0000      0.0000      0.0000      0.0000
 35      0.0000      0.0336      0.0000      0.0000      0.0000      0.0000      0.0000      0.0000      0.0290
 36      0.0000      0.0093      0.0000      0.0000      0.0000      0.0000      0.0000      0.0000      0.0000
 37      0.0000      0.0061      0.0000      0.0000      0.0000      0.0000      0.0000      0.0000      0.0000
 38      0.0000      0.0057      0.0000      0.0000      0.0000      0.0000      0.0000      0.0000      0.0000
 39      0.0000      0.0083      0.0000      0.0000      0.0000      0.0000      0.0000      0.0000      0.0000
 40      0.0000      0.0119      0.0000      0.0000      0.0000      0.0000      0.0000      0.0000      0.0000
 41      0.0000      0.0318      0.0000      0.0000      0.0000      0.0000      0.0000      0.0000      0.0870
 42      0.0000      1.8408      1.6363      2.1703      1.9727      2.2660      1.9331      2.1276      1.9657
 43      0.0000      0.0394      0.0000      0.0000      0.0000      0.0288      0.0000      0.0710      0.0790
 44      3.8697      3.8270      3.9619      3.5370      3.9525      4.0802      3.5073      4.0247      4.2809
 45      3.9796      1.2956      1.6594      1.2917      1.7040      1.4945      1.6430      1.5437      1.4104

# j      m_j: min, <> & last-chain-values for 1 ...  7 chains
  1  9.3140E-01  1.1043E+00  1.0537E+00  1.1853E+00  1.0880E+00  1.1446E+00  1.1311E+00  1.0866E+00  1.0998E+00
  2  0.0000E+00  1.2685E-04  0.0000E+00  0.0000E+00  0.0000E+00  0.0000E+00  0.0000E+00  0.0000E+00  0.0000E+00
  3  0.0000E+00  6.2705E-04  2.5298E-04  0.0000E+00  0.0000E+00  0.0000E+00  0.0000E+00  0.0000E+00  0.0000E+00
  4  0.0000E+00  3.1524E-04  0.0000E+00  0.0000E+00  0.0000E+00  0.0000E+00  0.0000E+00  0.0000E+00  0.0000E+00
  5  0.0000E+00  8.6570E-04  2.9589E-04  0.0000E+00  0.0000E+00  0.0000E+00  0.0000E+00  0.0000E+00  0.0000E+00
  6  0.0000E+00  1.0062E-03  0.0000E+00  0.0000E+00  0.0000E+00  0.0000E+00  0.0000E+00  0.0000E+00  0.0000E+00
  7  0.0000E+00  3.3241E-04  0.0000E+00  0.0000E+00  0.0000E+00  0.0000E+00  0.0000E+00  0.0000E+00  0.0000E+00
  8  0.0000E+00  7.2252E-04  0.0000E+00  0.0000E+00  0.0000E+00  0.0000E+00  0.0000E+00  0.0000E+00  0.0000E+00
  9  0.0000E+00  1.2088E-03  0.0000E+00  0.0000E+00  0.0000E+00  0.0000E+00  0.0000E+00  0.0000E+00  0.0000E+00
 10  0.0000E+00  1.9245E-03  0.0000E+00  0.0000E+00  0.0000E+00  0.0000E+00  0.0000E+00  0.0000E+00  0.0000E+00
 11  0.0000E+00  7.3422E-03  0.0000E+00  0.0000E+00  2.3838E-02  0.0000E+00  5.8190E-02  0.0000E+00  0.0000E+00
 12  0.0000E+00  3.4763E-02  0.0000E+00  0.0000E+00  1.5117E-02  0.0000E+00  0.0000E+00  0.0000E+00  0.0000E+00
 13  0.0000E+00  5.3621E-02  0.0000E+00  0.0000E+00  0.0000E+00  0.0000E+00  1.1058E-01  0.0000E+00  0.0000E+00
 14  0.0000E+00  1.9263E-01  1.0260E-02  0.0000E+00  0.0000E+00  0.0000E+00  7.6893E-02  2.3058E-01  0.0000E+00
 15  0.0000E+00  4.9069E-01  0.0000E+00  0.0000E+00  0.0000E+00  0.0000E+00  0.0000E+00  2.6563E-01  0.0000E+00
 16  0.0000E+00  1.2452E-02  0.0000E+00  0.0000E+00  1.1000E-02  0.0000E+00  1.1634E-02  0.0000E+00  0.0000E+00
 17  9.4719E-02  1.1705E-01  1.1094E-01  1.0615E-01  1.1935E-01  1.2973E-01  1.0408E-01  1.3362E-01  1.0749E-01
 18  0.0000E+00  2.3323E-04  0.0000E+00  0.0000E+00  0.0000E+00  0.0000E+00  0.0000E+00  0.0000E+00  0.0000E+00
 19  0.0000E+00  1.9700E-03  0.0000E+00  0.0000E+00  0.0000E+00  0.0000E+00  0.0000E+00  0.0000E+00  8.2004E-04
 20  0.0000E+00  5.8040E-03  0.0000E+00  0.0000E+00  0.0000E+00  0.0000E+00  0.0000E+00  0.0000E+00  0.0000E+00
 21  0.0000E+00  6.0271E-04  0.0000E+00  0.0000E+00  0.0000E+00  0.0000E+00  0.0000E+00  0.0000E+00  0.0000E+00
 22  0.0000E+00  4.8033E-04  0.0000E+00  0.0000E+00  0.0000E+00  0.0000E+00  0.0000E+00  0.0000E+00  0.0000E+00
 23  0.0000E+00  1.5513E-03  0.0000E+00  0.0000E+00  0.0000E+00  0.0000E+00  0.0000E+00  0.0000E+00  0.0000E+00
 24  0.0000E+00  1.5154E-03  0.0000E+00  0.0000E+00  0.0000E+00  0.0000E+00  0.0000E+00  0.0000E+00  0.0000E+00
 25  0.0000E+00  4.6532E-03  0.0000E+00  0.0000E+00  0.0000E+00  0.0000E+00  0.0000E+00  0.0000E+00  0.0000E+00
 26  0.0000E+00  3.5304E-02  2.2675E-01  0.0000E+00  0.0000E+00  0.0000E+00  1.0687E-01  0.0000E+00  0.0000E+00
 27  0.0000E+00  1.0622E-01  0.0000E+00  0.0000E+00  0.0000E+00  0.0000E+00  0.0000E+00  0.0000E+00  0.0000E+00
 28  0.0000E+00  5.2911E-01  0.0000E+00  0.0000E+00  0.0000E+00  1.5207E+00  1.3318E-01  1.3901E+00  2.5470E-01
 29  1.4373E-02  1.0146E+01  8.4783E+00  1.1515E+01  9.6429E+00  2.9052E+00  1.0609E+01  6.9227E+00  1.1291E+01
 30  0.0000E+00  4.6714E+00  7.1105E+00  8.8201E+00  0.0000E+00  2.0658E+00  6.0825E+00  6.0457E-01  0.0000E+00
 31  0.0000E+00  6.1010E-03  0.0000E+00  0.0000E+00  2.4473E-03  1.0418E-03  2.4148E-03  0.0000E+00  5.5878E-03
 32  0.0000E+00  1.3580E-03  0.0000E+00  0.0000E+00  1.1618E-03  0.0000E+00  0.0000E+00  0.0000E+00  0.0000E+00
 33  0.0000E+00  5.4124E-04  0.0000E+00  0.0000E+00  0.0000E+00  1.4188E-03  0.0000E+00  0.0000E+00  0.0000E+00
 34  0.0000E+00  1.4920E-03  0.0000E+00  0.0000E+00  0.0000E+00  0.0000E+00  0.0000E+00  0.0000E+00  0.0000E+00
 35  0.0000E+00  1.1621E-03  0.0000E+00  0.0000E+00  0.0000E+00  0.0000E+00  0.0000E+00  0.0000E+00  9.5532E-04
 36  0.0000E+00  4.0659E-04  0.0000E+00  0.0000E+00  0.0000E+00  0.0000E+00  0.0000E+00  0.0000E+00  0.0000E+00
 37  0.0000E+00  4.6089E-04  0.0000E+00  0.0000E+00  0.0000E+00  0.0000E+00  0.0000E+00  0.0000E+00  0.0000E+00
 38  0.0000E+00  9.7957E-04  0.0000E+00  0.0000E+00  0.0000E+00  0.0000E+00  0.0000E+00  0.0000E+00  0.0000E+00
 39  0.0000E+00  3.6288E-03  0.0000E+00  0.0000E+00  0.0000E+00  0.0000E+00  0.0000E+00  0.0000E+00  0.0000E+00
 40  0.0000E+00  8.9887E-03  0.0000E+00  0.0000E+00  0.0000E+00  0.0000E+00  0.0000E+00  0.0000E+00  0.0000E+00
 41  0.0000E+00  4.3645E-02  0.0000E+00  0.0000E+00  0.0000E+00  0.0000E+00  0.0000E+00  0.0000E+00  1.1392E-01
 42  0.0000E+00  5.0286E+00  4.1300E+00  5.8929E+00  5.2531E+00  6.3039E+00  5.1358E+00  5.7381E+00  5.1146E+00
 43  0.0000E+00  2.4912E-01  0.0000E+00  0.0000E+00  0.0000E+00  1.8535E-01  0.0000E+00  4.4325E-01  4.7582E-01
 44  4.3968E+01  5.4635E+01  5.2260E+01  5.0190E+01  5.5004E+01  5.9319E+01  4.8696E+01  5.6725E+01  5.8211E+01
 45  5.4991E+01  2.2494E+01  2.6619E+01  2.2291E+01  2.8839E+01  2.6423E+01  2.7742E+01  2.6460E+01  2.3325E+01

# AV, chi2 & Mass for <> & i_chain = 1 ...  7 solutions
AV       0.7549      0.7212      0.7117      0.7253      0.7331      0.7444      0.7207      0.7180      0.7126
chi2 1.2188E+00  1.2323E+00  1.2275E+00  1.2257E+00  1.2262E+00  1.2270E+00  1.2277E+00  1.2264E+00  1.2261E+00
Mass 1.0375E-11  7.8921E-12  8.4338E-12  7.9838E-12  8.2265E-12  7.9947E-12  8.1098E-12  7.9602E-12  8.1910E-12
 120.16                                  [v0_min (km/s) before EX0s...]
  77.61                                  [vd_min (km/s) before EX0s...]


## Synthetic spectrum (Best Model) ##l_obs f_obs f_syn wei
 2201    [Nl_obs]
 3100.00    1.64040   1.73758    3.781
 3101.00    2.09402   1.72968    3.352
 3102.00    2.14659   1.71980    3.351
 3103.00    2.48243   1.71508    3.157
 3104.00    2.44498   1.71478    3.213
 3105.00    2.05663   1.71543    3.539
 3106.00    1.82557   1.71615    3.800
 3107.00    1.66174   1.71687    4.014
 3108.00    1.19280   1.71759    4.796
 3109.00    1.45729   1.71831    4.363
 3110.00    1.57282   1.71903    4.240
 3111.00    2.03709   1.71975    3.750
 3112.00    1.85694   1.72047    3.953
 3113.00    1.70117   1.72120    4.156
 3114.00    1.41047   1.72192    4.605
 3115.00    1.82807   1.72264    4.085
 3116.00    2.10723   1.72337    3.813
 3117.00    2.22451   1.72409    3.739
 3118.00    2.17836   1.72480    3.799
 3119.00    1.43965   1.72508    4.701
 3120.00    1.57566   1.72160    4.507
 3121.00    1.59598   1.70924    4.503
 3122.00    1.31872   1.69378    4.993
 3123.00    1.24698   1.68611    5.150
 3124.00    1.63171   1.68520    4.521
 3125.00    1.76456   1.68581    4.379
 3126.00    1.63399   1.68652    4.571
 3127.00    1.67828   1.68723    4.529
 3128.00    1.71783   1.68793    4.495
 3129.00    2.54758   1.68864   -1.000
 3130.00    2.05006   1.68935    4.181
 3131.00    1.49959   1.69006    4.906
 3132.00    1.27599   1.69077    5.343
 3133.00    1.46492   1.69147    5.038
 3134.00    1.49052   1.69218    5.034
 3135.00    1.55312   1.69289    4.956
 3136.00    1.30520   1.69360    5.455
 3137.00    1.40911   1.69431    5.294
 3138.00    1.70383   1.69500    4.861
 3139.00    2.16391   1.69538    4.354
 3140.00    1.93819   1.69301    4.649
 3141.00    1.60763   1.68412    5.134
 3142.00    1.82550   1.67290    4.851
 3143.00    1.43368   1.66734    5.534
 3144.00    1.32182   1.66681    5.798
 3145.00    1.62398   1.66742    5.268
 3146.00    1.70572   1.66811    5.172
 3147.00    1.73121   1.66880    5.182
 3148.00    1.46132   1.66949    5.701
 3149.00    1.18502   1.67019   -1.000
 3150.00    1.32837   1.67088    6.062
 3151.00    1.43841   1.67157    5.868
 3152.00    1.41976   1.67226    5.963
 3153.00    1.78499   1.67295    5.338
 3154.00    1.99265   1.67364    5.088
 3155.00    1.89863   1.67432    5.250
 3156.00    1.81847   1.67501    5.406
 3157.00    1.63595   1.67570    5.735
 3158.00    1.50163   1.67637    6.009
 3159.00    1.65115   1.67669    5.755
 3160.00    1.58389   1.67395    5.910
 3161.00    1.24814   1.66397    6.707
 3162.00    1.09796   1.65130   -1.000
 3163.00    1.58272   1.64489    6.008
 3164.00    1.37565   1.64415    6.456
 3165.00    1.32476   1.64473    6.590
 3166.00    1.29512   1.64539    6.707
 3167.00    1.36068   1.64606    6.566
 3168.00    1.64771   1.64672    5.959
 3169.00    1.82422   1.64739    5.698
 3170.00    1.93856   1.64805    5.549
 3171.00    1.65908   1.64872    6.017
 3172.00    1.36191   1.64938    6.673
 3173.00    1.22741   1.65004   -1.000
 3174.00    1.57314   1.65070    6.258
 3175.00    1.84857   1.65137    5.779
 3176.00    1.79590   1.65203    5.891
 3177.00    1.77906   1.65268    5.934
 3178.00    1.63856   1.65333    6.202
 3179.00    1.58003   1.65356    6.335
 3180.00    1.47397   1.65038    6.578
 3181.00    1.41453   1.63908    6.732
 3182.00    1.48903   1.62466    6.596
 3183.00    1.61802   1.61723    6.344
 3184.00    1.77274   1.61622    6.091
 3185.00    1.71667   1.61675    6.209
 3186.00    1.68405   1.61738    6.290
 3187.00    1.67811   1.61802    6.335
 3188.00    1.76777   1.61865    6.210
 3189.00    2.20442   1.61928   -1.000
 3190.00    2.33726   1.61991   -1.000
 3191.00    2.05904   1.62055    5.844
 3192.00    1.59166   1.62117    6.690
 3193.00    1.39555   1.62180    7.165
 3194.00    1.62812   1.62243    6.690
 3195.00    1.69708   1.62306    6.580
 3196.00    1.54832   1.62368    6.920
 3197.00    1.49304   1.62431    7.085
 3198.00    1.70611   1.62492    6.670
 3199.00    1.67231   1.62513    6.793
 3200.00    1.44637   1.62209    7.336
 3201.00    1.34033   1.61129    7.666
 3202.00    1.31470   1.59743    7.780
 3203.00    1.43079   1.59019    7.488
 3204.00    1.33246   1.58917    7.806
 3205.00    1.66607   1.58966    7.003
 3206.00    1.60688   1.59026    7.147
 3207.00    1.64082   1.59086    7.074
 3208.00    1.50512   1.59146    7.394
 3209.00    1.72372   1.59206    6.924
 3210.00    1.60995   1.59265    7.159
 3211.00    1.44863   1.59325    7.558
 3212.00    1.38201   1.59384    7.744
 3213.00    1.54207   1.59444    7.326
 3214.00    1.55199   1.59503    7.304
 3215.00    1.42191   1.59562    7.643
 3216.00    1.27719   1.59621    8.051
 3217.00    1.39110   1.59680    7.727
 3218.00    1.29583   1.59737    8.010
 3219.00    1.55089   1.59769    7.330
 3220.00    1.59311   1.59585    7.237
 3221.00    1.47078   1.58887    7.512
 3222.00    1.46765   1.57980    7.517
 3223.00    1.47388   1.57508    7.515
 3224.00    1.62620   1.57454    7.179
 3225.00    1.47961   1.57504    7.536
 3226.00    1.35944   1.57560    7.924
 3227.00    1.30866   1.57617    8.094
 3228.00    1.34198   1.57674    8.022
 3229.00    1.40908   1.57730    7.855
 3230.00    1.63060   1.57787    7.326
 3231.00    1.72143   1.57843    7.129
 3232.00    1.51427   1.57899    7.646
 3233.00    1.38891   1.57955    7.996
 3234.00    1.26200   1.58011    8.392
 3235.00    1.27599   1.58067    8.370
 3236.00    1.35729   1.58122    8.135
 3237.00    1.50508   1.58178    7.725
 3238.00    1.45926   1.58233    7.840
 3239.00    1.68940   1.58263    7.310
 3240.00    1.94412   1.58097    6.796
 3241.00    1.65637   1.57465    7.359
 3242.00    1.46840   1.56636    7.813
 3243.00    1.49799   1.56201    7.724
 3244.00    1.48391   1.56150    7.748
 3245.00    1.53563   1.56197    7.624
 3246.00    1.38812   1.56250    8.036
 3247.00    1.63519   1.56304    7.442
 3248.00    1.79846   1.56357    7.067
 3249.00    1.43391   1.56411    7.884
 3250.00    1.45615   1.56464    7.824
 3251.00    1.16091   1.56517   -1.000
 3252.00    1.67041   1.56570    7.356
 3253.00    1.49435   1.56622    7.760
 3254.00    1.29274   1.56675    8.366
 3255.00    1.49949   1.56728    7.791
 3256.00    1.43428   1.56780    8.002
 3257.00    1.52297   1.56832    7.783
 3258.00    1.53898   1.56883    7.777
 3259.00    1.59392   1.56901    7.689
 3260.00    1.41812   1.56656    8.193
 3261.00    1.42479   1.55783    8.227
 3262.00    1.81439   1.54638    7.303
 3263.00    1.68820   1.54019    7.633
 3264.00    1.45764   1.53924    8.259
 3265.00    1.64917   1.53964    7.787
 3266.00    1.81315   1.54014    7.450
 3267.00    1.44175   1.54064    8.376
 3268.00    1.29532   1.54114    8.900
 3269.00    1.43819   1.54163    8.501
 3270.00    1.60339   1.54213    8.077
 3271.00    1.50087   1.54262    8.343
 3272.00    1.40498   1.54312    8.617
 3273.00    1.65076   1.54361    7.953
 3274.00    1.69263   1.54410    7.884
 3275.00    1.44605   1.54459    8.561
 3276.00    1.34217   1.54508    8.910
 3277.00    1.48660   1.54557    8.495
 3278.00    1.53126   1.54604    8.403
 3279.00    1.46519   1.54622    8.602
 3280.00    1.49923   1.54410    8.523
 3281.00    1.63423   1.53646    8.201
 3282.00    1.57436   1.52636    8.370
 3283.00    1.53634   1.52085    8.502
 3284.00    1.54636   1.52001    8.525
 3285.00    1.60668   1.52038    8.404
 3286.00    1.65237   1.52084    8.327
 3287.00    1.56070   1.52131    8.612
 3288.00    1.45621   1.52177    8.959
 3289.00    1.24200   1.52224    9.737
 3290.00    1.31611   1.52270    9.510
 3291.00    1.51281   1.52316    8.890
 3292.00    1.39209   1.52362    9.318
 3293.00    1.39027   1.52408    9.376
 3294.00    1.40740   1.52454    9.311
 3295.00    1.43110   1.52499    9.246
 3296.00    1.30912   1.52545    9.687
 3297.00    1.52501   1.52590    8.987
 3298.00    1.63085   1.52634    8.663
 3299.00    1.39945   1.52643    9.396
 3300.00    1.37007   1.52388    9.501
 3301.00    1.48257   1.51493    9.126
 3302.00    1.40576   1.50307    9.398
 3303.00    1.32366   1.49650    9.698
 3304.00    1.38801   1.49536    9.463
 3305.00    1.61504   1.49567    8.781
 3306.00    1.61209   1.49610    8.803
 3307.00    1.47514   1.49653    9.181
 3308.00    1.68832   1.49696    8.600
 3309.00    1.72749   1.49739    8.507
 3310.00    1.63635   1.49782    8.731
 3311.00    1.55126   1.49825    8.978
 3312.00    1.59979   1.49867    8.869
 3313.00    1.68497   1.49910    8.654
 3314.00    1.54680   1.49953    9.052
 3315.00    1.54768   1.50001    9.069
 3316.00    1.54340   1.50096    9.096
 3317.00    1.56153   1.50303    9.078
 3318.00    1.56087   1.50562    9.100
 3319.00    1.29311   1.50728   10.057
 3320.00    1.30597   1.50798   10.050
 3321.00    1.57271   1.50843    9.173
 3322.00    1.77074   1.50900    8.652
 3323.00    1.62644   1.51052    9.024
 3324.00    1.63884   1.51301    9.029
 3325.00    1.58746   1.51261    9.185
 3326.00    1.48699   1.50850    9.470
 3327.00    1.36688   1.50283    9.891
 3328.00    1.42577   1.49699    9.695
 3329.00    1.48571   1.49263    9.519
 3330.00    1.43735   1.49124    9.692
 3331.00    1.50355   1.49229    9.470
 3332.00    1.54875   1.49255    9.345
 3333.00    1.48283   1.48892    9.570
 3334.00    1.46562   1.48093    9.639
 3335.00    1.43460   1.47106    9.750
 3336.00    1.58984   1.46175    9.258
 3337.00    1.63214   1.45467    9.129
 3338.00    1.75232   1.45078    8.815
 3339.00    1.53124   1.44789    9.439
 3340.00    1.37517   1.44401    9.945
 3341.00    1.49889   1.44036    9.566
 3342.00    1.64778   1.44110    9.153
 3343.00    1.57734   1.44886    9.378
 3344.00    1.45117   1.46250    9.808
 3345.00    1.50771   1.47641    9.651
 3346.00    1.58278   1.48716    9.423
 3347.00    1.55561   1.49547    9.563
 3348.00    1.42111   1.49981   10.032
 3349.00    1.53474   1.49543    9.680
 3350.00    1.61145   1.47986    9.504
 3351.00    1.35413   1.45567   10.357
 3352.00    1.41005   1.43670   10.157
 3353.00    1.40494   1.43051   10.196
 3354.00    1.58555   1.42955    9.629
 3355.00    1.52227   1.42643    9.849
 3356.00    1.54411   1.42225    9.812
 3357.00    1.64549   1.42245    9.541
 3358.00    1.46068   1.42719   10.150
 3359.00    1.50147   1.43237   10.042
 3360.00    1.58329   1.43519    9.780
 3361.00    1.45722   1.43641   10.174
 3362.00    1.47017   1.43712   10.132
 3363.00    1.39908   1.43782   10.431
 3364.00    1.40573   1.43733   10.411
 3365.00    1.34543   1.43356   10.627
 3366.00    1.32962   1.42499   10.728
 3367.00    1.38324   1.41302   10.509
 3368.00    1.45636   1.40236   10.245
 3369.00    1.59823   1.39735    9.801
 3370.00    1.59965   1.39976    9.796
 3371.00    1.56216   1.40656    9.925
 3372.00    1.46237   1.40885   10.265
 3373.00    1.53875   1.40380   10.010
 3374.00    1.49303   1.39898   10.164
 3375.00    1.35833   1.40076   10.681
 3376.00    1.37106   1.40824   10.677
 3377.00    1.52388   1.41323   10.164
 3378.00    1.66476   1.41047    9.694
 3379.00    1.60433   1.40621    9.879
 3380.00    1.51569   1.40695   10.138
 3381.00    1.50610   1.41374   10.177
 3382.00    1.41326   1.42278   10.552
 3383.00    1.34965   1.42944   10.763
 3384.00    1.40811   1.43249   10.534
 3385.00    1.46272   1.43373   10.316
 3386.00    1.66592   1.43656    9.677
 3387.00    1.63047   1.44015    9.776
 3388.00    1.49392   1.44139   10.188
 3389.00    1.50818   1.43950   10.161
 3390.00    1.48899   1.43527   10.215
 3391.00    1.46238   1.43192   10.324
 3392.00    1.47826   1.43185   10.272
 3393.00    1.51041   1.43535   10.193
 3394.00    1.59690   1.44164    9.924
 3395.00    1.53605   1.44916   10.114
 3396.00    1.58237   1.45295    9.953
 3397.00    1.58024   1.44872    9.977
 3398.00    1.59567   1.43734    9.970
 3399.00    1.67432   1.42171    9.803
 3400.00    1.70319   1.40431    9.750
 3401.00    1.74313   1.39161   -1.000
 3402.00    1.65586   1.38756    9.893
 3403.00    1.56519   1.38633   10.204
 3404.00    1.46516   1.38386   10.571
 3405.00    1.36627   1.38206   10.977
 3406.00    1.35796   1.38144   11.052
 3407.00    1.45921   1.38057   10.702
 3408.00    1.44326   1.38065   10.813
 3409.00    1.51829   1.38286   10.553
 3410.00    1.48864   1.38582   10.674
 3411.00    1.52878   1.38665   10.570
 3412.00    1.52432   1.38289   10.606
 3413.00    1.55831   1.37918   10.508
 3414.00    1.52743   1.38060   10.665
 3415.00    1.53619   1.38599   10.653
 3416.00    1.59644   1.39177   10.488
 3417.00    1.45558   1.39560   10.992
 3418.00    1.39199   1.39839   11.278
 3419.00    1.43861   1.40113   11.119
 3420.00    1.43207   1.40338   11.163
 3421.00    1.47369   1.40452   10.998
 3422.00    1.49468   1.40461   10.922
 3423.00    1.34131   1.40407   11.568
 3424.00    1.40910   1.40341   11.296
 3425.00    1.42780   1.40233   11.200
 3426.00    1.42258   1.40046   11.217
 3427.00    1.42380   1.39933   11.219
 3428.00    1.39557   1.40048   11.308
 3429.00    1.48503   1.40355   10.975
 3430.00    1.41739   1.40529   11.253
 3431.00    1.27976   1.40289   11.833
 3432.00    1.45523   1.39911   11.120
 3433.00    1.54273   1.39678   10.835
 3434.00    1.50133   1.39656   10.967
 3435.00    1.27785   1.39833   11.891
 3436.00    1.24426   1.40042   12.087
 3437.00    1.53141   1.40042   10.901
 3438.00    1.66065   1.39681   10.465
 3439.00    1.54997   1.38975   10.840
 3440.00    1.38331   1.37988   11.455
 3441.00    1.48377   1.36854   11.049
 3442.00    1.45467   1.36041   11.189
 3443.00    1.47192   1.35934   11.112
 3444.00    1.44401   1.36443   11.242
 3445.00    1.43769   1.36930   11.260
 3446.00    1.44650   1.36834   11.265
 3447.00    1.47701   1.36448   11.145
 3448.00    1.50807   1.36366   11.036
 3449.00    1.52942   1.36798   10.990
 3450.00    1.50554   1.37179   11.123
 3451.00    1.55389   1.36568   10.955
 3452.00    1.54517   1.35189   10.982
 3453.00    1.53030   1.33975   11.035
 3454.00    1.51030   1.33382   11.120
 3455.00    1.57848   1.33307   10.891
 3456.00    1.52705   1.33429   11.070
 3457.00    1.49184   1.33584   11.197
 3458.00    1.42046   1.33599   11.476
 3459.00    1.51520   1.33294   11.116
 3460.00    1.60276   1.32833   10.825
 3461.00    1.54705   1.32503   11.018
 3462.00    1.54414   1.32510   11.045
 3463.00    1.49693   1.33102   11.213
 3464.00    1.44210   1.34138   11.437
 3465.00    1.40145   1.34654   11.637
 3466.00    1.40663   1.34650   11.590
 3467.00    1.53838   1.34701   11.057
 3468.00    1.58811   1.34703   10.877
 3469.00    1.43390   1.34518   11.441
 3470.00    1.49479   1.34333   11.187
 3471.00    1.43891   1.34203   11.421
 3472.00    1.46734   1.33848   11.318
 3473.00    1.51667   1.33473   11.133
 3474.00    1.47518   1.33434   11.280
 3475.00    1.48109   1.33446   11.286
 3476.00    1.43263   1.33166   11.458
 3477.00    1.44839   1.32503   11.400
 3478.00    1.42531   1.31387   11.510
 3479.00    1.44883   1.30105   11.402
 3480.00    1.36621   1.29308   11.775
 3481.00    1.30574   1.29374   12.080
 3482.00    1.39463   1.29898   11.645
 3483.00    1.54018   1.30032   11.078
 3484.00    1.50743   1.29712   11.203
 3485.00    1.43304   1.29760   11.505
 3486.00    1.34765   1.30613   11.858
 3487.00    1.33142   1.31774   11.979
 3488.00    1.52468   1.32789   11.192
 3489.00    1.62680   1.33595   -1.000
 3490.00    1.48365   1.33928   11.388
 3491.00    1.44246   1.33702   11.530
 3492.00    1.52766   1.33488   11.175
 3493.00    1.39065   1.33789   11.737
 3494.00    1.35638   1.34221   11.900
 3495.00    1.50808   1.34217   11.263
 3496.00    1.55806   1.33719   11.088
 3497.00    1.49378   1.33077   11.307
 3498.00    1.45339   1.32801   11.427
 3499.00    1.49254   1.32910   11.272
 3500.00    1.52663   1.32805    0.000
 3501.00    1.42240   1.32037    0.000
 3502.00    1.38625   1.31000    0.000
 3503.00    1.52832   1.30506    0.000
 3504.00    1.46885   1.30541    0.000
 3505.00    1.51860   1.30338    0.000
 3506.00    1.56744   1.29650    0.000
 3507.00    1.62790   1.29016    0.000
 3508.00    1.49013   1.28867    0.000
 3509.00    1.39085   1.29085    0.000
 3510.00    1.39914   1.29292    0.000
 3511.00    1.50960   1.29272    0.000
 3512.00    1.57121   1.28993    0.000
 3513.00    1.54793   1.28535    0.000
 3514.00    1.53271   1.28150    0.000
 3515.00    1.57948   1.28204    0.000
 3516.00    1.56018   1.28668    0.000
 3517.00    1.44578   1.29161    0.000
 3518.00    1.49993   1.29394    0.000
 3519.00    1.61783   1.29463    0.000
 3520.00    1.54325   1.29501    0.000
 3521.00    1.43066   1.29417    0.000
 3522.00    1.53312   1.29112    0.000
 3523.00    1.53982   1.28704    0.000
 3524.00    1.48519   1.28475    0.000
 3525.00    1.35629   1.28492    0.000
 3526.00    1.34831   1.28436    0.000
 3527.00    1.41201   1.28292    0.000
 3528.00    1.39786   1.28289    0.000
 3529.00    1.50149   1.28490    0.000
 3530.00    1.53891   1.28843    0.000
 3531.00    1.46372   1.29239    0.000
 3532.00    1.52017   1.29602    0.000
 3533.00    1.49929   1.29860    0.000
 3534.00    1.58994   1.29824    0.000
 3535.00    1.57981   1.29529    0.000
 3536.00    1.46502   1.29288    0.000
 3537.00    1.33236   1.29119    0.000
 3538.00    1.47226   1.28810    0.000
 3539.00    1.45211   1.28511    0.000
 3540.00    1.47778   1.28455    0.000
 3541.00    1.57425   1.28659    0.000
 3542.00    1.51244   1.28924    0.000
 3543.00    1.56062   1.29051    0.000
 3544.00    1.45385   1.29110    0.000
 3545.00    1.35899   1.29234    0.000
 3546.00    1.40475   1.29293    0.000
 3547.00    1.27137   1.29187    0.000
 3548.00    1.17610   1.29149    0.000
 3549.00    1.29416   1.29266    0.000
 3550.00    1.30113   1.29276    0.000
 3551.00    1.49135   1.29012    0.000
 3552.00    1.48111   1.28680    0.000
 3553.00    1.46517   1.28561    0.000
 3554.00    1.43444   1.28538    0.000
 3555.00    1.37615   1.28347    0.000
 3556.00    1.40228   1.27998    0.000
 3557.00    1.40174   1.27744    0.000
 3558.00    1.36488   1.27812    0.000
 3559.00    1.43386   1.28053    0.000
 3560.00    1.44346   1.28155    0.000
 3561.00    1.58060   1.28106    0.000
 3562.00    1.47912   1.28149    0.000
 3563.00    1.37110   1.28282    0.000
 3564.00    1.44425   1.28156    0.000
 3565.00    1.51097   1.27676    0.000
 3566.00    1.38097   1.27191    0.000
 3567.00    1.45098   1.26940    0.000
 3568.00    1.49964   1.26799    0.000
 3569.00    1.41373   1.26649    0.000
 3570.00    1.37784   1.26256    0.000
 3571.00    1.54106   1.25361    0.000
 3572.00    1.49676   1.24097    0.000
 3573.00    1.39528   1.23081    0.000
 3574.00    1.40166   1.22603    0.000
 3575.00    1.44126   1.22432    0.000
 3576.00    1.44758   1.22447    0.000
 3577.00    1.46123   1.22592    0.000
 3578.00    1.50503   1.22564    0.000
 3579.00    1.51592   1.22174    0.000
 3580.00    1.39134   1.21634    0.000
 3581.00    1.44563   1.21332    0.000
 3582.00    1.42831   1.21347    0.000
 3583.00    1.53202   1.21384    0.000
 3584.00    1.55150   1.21255    0.000
 3585.00    1.54810   1.21059    0.000
 3586.00    1.50142   1.20902    0.000
 3587.00    1.48301   1.20762    0.000
 3588.00    1.51904   1.20582    0.000
 3589.00    1.47435   1.20458    0.000
 3590.00    1.63834   1.20673    0.000
 3591.00    1.60885   1.21250    0.000
 3592.00    1.52505   1.21731    0.000
 3593.00    1.48186   1.21790    0.000
 3594.00    1.47914   1.21669    0.000
 3595.00    1.61089   1.21678    0.000
 3596.00    1.53330   1.21801    0.000
 3597.00    1.42551   1.21934    0.000
 3598.00    1.35518   1.22104    0.000
 3599.00    1.40663   1.22380    0.000
 3600.00    1.41884   1.22772    0.000
 3601.00    1.42269   1.23149    0.000
 3602.00    1.43950   1.23254    0.000
 3603.00    1.33182   1.23037    0.000
 3604.00    1.42570   1.22604    0.000
 3605.00    1.50548   1.22149    0.000
 3606.00    1.51384   1.21873    0.000
 3607.00    1.46745   1.21768    0.000
 3608.00    1.34150   1.21710    0.000
 3609.00    1.44067   1.21678    0.000
 3610.00    1.46371   1.21749    0.000
 3611.00    1.30050   1.21853    0.000
 3612.00    1.31990   1.21832    0.000
 3613.00    1.51536   1.21762    0.000
 3614.00    1.60198   1.21680    0.000
 3615.00    1.57948   1.21516    0.000
 3616.00    1.57956   1.21369    0.000
 3617.00    1.44422   1.21368    0.000
 3618.00    1.49933   1.21437    0.000
 3619.00    1.53467   1.21521    0.000
 3620.00    1.52820   1.21679    0.000
 3621.00    1.55002   1.21874    0.000
 3622.00    1.42291   1.22210    0.000
 3623.00    1.39958   1.22774    0.000
 3624.00    1.44007   1.23244    0.000
 3625.00    1.57172   1.23413    0.000
 3626.00    1.51663   1.23558    0.000
 3627.00    1.45055   1.23905    0.000
 3628.00    1.48801   1.24203    0.000
 3629.00    1.47125   1.24065    0.000
 3630.00    1.56085   1.23512    0.000
 3631.00    1.55763   1.22909    0.000
 3632.00    1.51366   1.22486    0.000
 3633.00    1.58675   1.22180    0.000
 3634.00    1.65818   1.21962    0.000
 3635.00    1.56963   1.21923    0.000
 3636.00    1.50677   1.21756    0.000
 3637.00    1.47028   1.21116    0.000
 3638.00    1.45040   1.20456    0.000
 3639.00    1.39771   1.20331    0.000
 3640.00    1.34489   1.20616    0.000
 3641.00    1.39119   1.20974    0.000
 3642.00    1.43554   1.21262    0.000
 3643.00    1.43009   1.21334    0.000
 3644.00    1.46187   1.20995    0.000
 3645.00    1.46628   1.20305    0.000
 3646.00    1.42548   1.19609    0.000
 3647.00    1.40215   1.19149    0.000
 3648.00    1.48898   1.18951    0.000
 3649.00    1.35326   1.19006    0.000
 3650.00    1.43017   1.19250    0.000
 3651.00    1.32177   1.19539    0.000
 3652.00    1.19009   1.19734    0.000
 3653.00    1.19455   1.19801    0.000
 3654.00    1.26796   1.19757    0.000
 3655.00    1.31468   1.19692    0.000
 3656.00    1.22947   1.19752    0.000
 3657.00    1.20169   1.19942    0.000
 3658.00    1.25514   1.20107    0.000
 3659.00    1.34978   1.20138    0.000
 3660.00    1.30806   1.20028    0.000
 3661.00    1.31124   1.19803    0.000
 3662.00    1.21273   1.19522    0.000
 3663.00    1.22616   1.19267    0.000
 3664.00    1.17994   1.19135    0.000
 3665.00    1.16481   1.19093    0.000
 3666.00    1.30630   1.19008    0.000
 3667.00    1.30896   1.18816    0.000
 3668.00    1.34844   1.18491    0.000
 3669.00    1.30597   1.18143    0.000
 3670.00    1.31797   1.18022    0.000
 3671.00    1.33114   1.18194    0.000
 3672.00    1.19082   1.18418    0.000
 3673.00    1.13047   1.18411    0.000
 3674.00    1.22784   1.18131    0.000
 3675.00    1.34442   1.17755    0.000
 3676.00    1.32297   1.17451    0.000
 3677.00    1.22563   1.17233    0.000
 3678.00    1.10220   1.16932    0.000
 3679.00    1.13235   1.16515    0.000
 3680.00    1.11583   1.16140    0.000
 3681.00    1.15013   1.15960    0.000
 3682.00    1.25230   1.16034    0.000
 3683.00    1.33517   1.16243    0.000
 3684.00    1.24384   1.16347    0.000
 3685.00    1.17927   1.16210    0.000
 3686.00    1.20814   1.15864    0.000
 3687.00    1.25778   1.15417    0.000
 3688.00    1.27390   1.15096    0.000
 3689.00    1.21587   1.15173    0.000
 3690.00    1.12316   1.15604    0.000
 3691.00    1.14921   1.15973    0.000
 3692.00    1.21329   1.16002    0.000
 3693.00    1.18389   1.15808    0.000
 3694.00    1.06584   1.15519    0.000
 3695.00    1.07756   1.15092    0.000
 3696.00    1.17819   1.14594    0.000
 3697.00    1.23476   1.14246    0.000
 3698.00    1.30956   1.14166    0.000
 3699.00    1.17196   1.14393    0.000
 3700.00    1.05786   1.14921    0.000
 3701.00    1.04161   1.15436    0.000
 3702.00    1.16224   1.15277    0.000
 3703.00    1.23639   1.14039    0.000
 3704.00    1.36378   1.11989    0.000
 3705.00    1.53289   1.09952    0.000
 3706.00    1.46322   1.08792    0.000
 3707.00    1.33830   1.08845    0.000
 3708.00    1.27070   1.09708    0.000
 3709.00    1.12476   1.10572    0.000
 3710.00    1.01262   1.10837    0.000
 3711.00    1.12300   1.10406    0.000
 3712.00    1.38147   1.09628    0.000
 3713.00    1.38666   1.09098    0.000
 3714.00    1.39588   1.09314    0.000
 3715.00    1.45454   1.10351    0.000
 3716.00    1.20878   1.11791    0.000
 3717.00    1.09327   1.12896    0.000
 3718.00    1.27311   1.13125    0.000
 3719.00    1.22880   1.12406    0.000
 3720.00    1.32792   1.10735    0.000
 3721.00    1.71768   1.08362    0.000
 3722.00    2.02347   1.06266    0.000
 3723.00    2.46104   1.05425    0.000
 3724.00    4.27059   1.06024    0.000
 3725.00   12.16300   1.07502    0.000
 3726.00   22.77497   1.09028    0.000
 3727.00   29.01802   1.10165    0.000
 3728.00   42.46277   1.11044    0.000
 3729.00   47.49131   1.11784    0.000
 3730.00   37.75872   1.12180    0.000
 3731.00   32.28834   1.11900    0.000
 3732.00   18.96390   1.10650    0.000
 3733.00    5.24213   1.08418    0.000
 3734.00    2.71717   1.05681    0.000
 3735.00    2.18604   1.03291    0.000
 3736.00    1.85401   1.02190    0.000
 3737.00    1.70132   1.02855    0.000
 3738.00    1.46091   1.04986    0.000
 3739.00    1.22351   1.07783    0.000
 3740.00    1.16548   1.10452   15.691
 3741.00    1.22519   1.12464   15.304
 3742.00    1.17884   1.13559   15.649
 3743.00    1.12642   1.13717   16.022
 3744.00    1.06059   1.13150   16.472
 3745.00    1.04211   1.12243    0.000
 3746.00    1.08593   1.11199    0.000
 3747.00    1.06442   1.09789    0.000
 3748.00    1.13642   1.07637    0.000
 3749.00    1.24357   1.04772    0.000
 3750.00    1.48364   1.01892    0.000
 3751.00    1.55555   1.00167    0.000
 3752.00    1.64960   1.00375    0.000
 3753.00    1.54519   1.02168    0.000
 3754.00    1.16178   1.04574    0.000
 3755.00    1.13679   1.06845   16.053
 3756.00    1.11153   1.08564   16.245
 3757.00    1.09787   1.09468   16.327
 3758.00    1.05312   1.09540   16.698
 3759.00    1.05852   1.09090   16.672
 3760.00    1.12272   1.08550   16.166
 3761.00    1.14120   1.08213   16.056
 3762.00    1.07692   1.08333   16.557
 3763.00    0.96717   1.09048   17.452
 3764.00    1.10409   1.09877   16.327
 3765.00    1.02722   1.10033    0.000
 3766.00    0.97981   1.09251    0.000
 3767.00    1.08286   1.07727    0.000
 3768.00    1.09492   1.05714    0.000
 3769.00    1.17958   1.03325    0.000
 3770.00    1.53735   1.00665    0.000
 3771.00    1.83236   0.98295    0.000
 3772.00    1.81899   0.97244    0.000
 3773.00    1.73315   0.98147    0.000
 3774.00    1.31555   1.00572    0.000
 3775.00    1.03948   1.03450    0.000
 3776.00    1.02546   1.05928   17.077
 3777.00    1.03623   1.07719   17.007
 3778.00    0.99307   1.08920   17.348
 3779.00    1.05093   1.09704   16.911
 3780.00    1.04227   1.10238   16.972
 3781.00    1.05378   1.10685   16.897
 3782.00    1.05270   1.11106   16.925
 3783.00    1.05142   1.11439   16.948
 3784.00    1.05339   1.11550   16.976
 3785.00    1.01335   1.11405   17.330
 3786.00    1.10299   1.11163   16.663
 3787.00    1.11143   1.10868   16.613
 3788.00    1.18563   1.10412   16.084
 3789.00    1.12760   1.09788   16.527
 3790.00    1.06849   1.09048   16.983
 3791.00    1.13648   1.08207   16.566
 3792.00    1.01823   1.07323   17.537
 3793.00    1.02872   1.06448    0.000
 3794.00    1.09319   1.05436    0.000
 3795.00    1.05964   1.03914    0.000
 3796.00    1.04068   1.01536    0.000
 3797.00    1.40287   0.98334    0.000
 3798.00    1.91099   0.95018    0.000
 3799.00    2.10926   0.92903    0.000
 3800.00    2.06187   0.93114    0.000
 3801.00    1.62626   0.95651    0.000
 3802.00    1.12967   0.99282    0.000
 3803.00    0.96208   1.02567   18.359
 3804.00    0.94799   1.04908   18.498
 3805.00    1.14799   1.06412   16.903
 3806.00    1.56232   1.07274   -1.000
 3807.00    2.15053   1.07637   -1.000
 3808.00    2.99708   1.07787   -1.000
 3809.00    2.81400   1.08073   -1.000
 3810.00    2.04512   1.08551   -1.000
 3811.00    1.69620   1.09043   -1.000
 3812.00    1.41824   1.09342   -1.000
 3813.00    1.12730   1.09280   17.208
 3814.00    1.02608   1.08912   17.989
 3815.00    0.97856   1.08444    0.000
 3816.00    0.87846   1.07976    0.000
 3817.00    0.94376   1.07449    0.000
 3818.00    1.03763   1.06720    0.000
 3819.00    1.08804   1.05663    0.000
 3820.00    1.14991   1.04425    0.000
 3821.00    1.21070   1.03526    0.000
 3822.00    1.19907   1.03485    0.000
 3823.00    1.16436   1.04255    0.000
 3824.00    1.16411   1.05198   16.879
 3825.00    1.18995   1.05680   16.718
 3826.00    1.22625   1.05642   16.506
 3827.00    1.06689   1.05344   17.683
 3828.00    1.01684   1.05013   18.090
 3829.00    0.98140   1.04604   18.458
 3830.00    0.94631   1.03820    0.000
 3831.00    1.01464   1.02532    0.000
 3832.00    0.95255   1.00752    0.000
 3833.00    0.92753   0.98377    0.000
 3834.00    1.23820   0.95277    0.000
 3835.00    2.01711   0.91747    0.000
 3836.00    2.29808   0.88855    0.000
 3837.00    2.38729   0.87957    0.000
 3838.00    2.19084   0.89424    0.000
 3839.00    1.54220   0.92381    0.000
 3840.00    1.14289   0.95666    0.000
 3841.00    1.07570   0.98556   17.684
 3842.00    1.13104   1.00838   17.280
 3843.00    1.10688   1.02680   17.491
 3844.00    0.99500   1.04292   18.466
 3845.00    1.01194   1.05657   18.307
 3846.00    1.09462   1.06578   17.605
 3847.00    0.99720   1.06935   18.467
 3848.00    1.01390   1.06884   18.340
 3849.00    1.06869   1.06762   17.869
 3850.00    1.02751   1.06747   18.216
 3851.00    1.09571   1.06884   17.665
 3852.00    1.11736   1.07119   17.517
 3853.00    1.09545   1.07356   17.707
 3854.00    1.06586   1.07345   17.957
 3855.00    1.10113   1.06960   17.698
 3856.00    1.09937   1.06377   17.728
 3857.00    1.13858   1.05794   17.464
 3858.00    1.16325   1.05320   17.310
 3859.00    1.11109   1.05089    0.000
 3860.00    1.07297   1.05257    0.000
 3861.00    1.05956   1.05724    0.000
 3862.00    1.04311   1.06137    0.000
 3863.00    1.01976   1.06152    0.000
 3864.00    1.09838   1.05634    0.000
 3865.00    1.12800   1.04879    0.000
 3866.00    1.17505   1.04297    0.000
 3867.00    1.77956   1.04032    0.000
 3868.00    3.91824   1.04017    0.000
 3869.00    5.52323   1.04090    0.000
 3870.00    5.39728   1.04051    0.000
 3871.00    4.88690   1.03824    0.000
 3872.00    3.25886   1.03528    0.000
 3873.00    1.60822   1.03382    0.000
 3874.00    1.14459   1.03554    0.000
 3875.00    1.18216   1.03999    0.000
 3876.00    1.09012   1.04379    0.000
 3877.00    1.05617   1.04355   18.282
 3878.00    1.12471   1.03946   17.720
 3879.00    1.08788   1.03531   17.995
 3880.00    1.09941   1.03333   17.909
 3881.00    1.06779   1.03190   18.172
 3882.00    1.02215   1.02822    0.000
 3883.00    0.99876   1.02115    0.000
 3884.00    1.05842   1.01211    0.000
 3885.00    1.04806   1.00081    0.000
 3886.00    1.03280   0.98281    0.000
 3887.00    1.42350   0.95343    0.000
 3888.00    3.20221   0.91425    0.000
 3889.00    4.94818   0.87527    0.000
 3890.00    5.25638   0.85248    0.000
 3891.00    4.95750   0.85815    0.000
 3892.00    3.47891   0.89036    0.000
 3893.00    1.63901   0.93411    0.000
 3894.00    1.04283   0.97356    0.000
 3895.00    1.00278   1.00130    0.000
 3896.00    1.03517   1.01857   18.132
 3897.00    1.08230   1.03026   17.705
 3898.00    1.10657   1.03853   17.479
 3899.00    1.04822   1.04432   17.947
 3900.00    1.01977   1.04857   18.173
 3901.00    1.06605   1.05200   17.754
 3902.00    1.10990   1.05516   17.344
 3903.00    1.07522   1.05803   17.597
 3904.00    1.05091   1.06018   17.744
 3905.00    1.07540   1.06111   17.516
 3906.00    1.05075   1.06053   17.703
 3907.00    1.01233   1.05946   17.984
 3908.00    1.06194   1.06036   17.538
 3909.00    1.10771   1.06446   17.142
 3910.00    1.06751   1.06871   17.434
 3911.00    1.05435   1.07025   17.509
 3912.00    1.01182   1.07054   17.841
 3913.00    1.00184   1.07163   17.901
 3914.00    1.05538   1.07242   17.429
 3915.00    1.09389   1.07198   17.103
 3916.00    1.10613   1.07112   16.995
 3917.00    1.07251   1.06986   17.254
 3918.00    1.04006   1.06707   17.510
 3919.00    1.02927   1.06173   17.584
 3920.00    1.06684   1.05409   17.251
 3921.00    1.05198   1.04623   17.372
 3922.00    1.19061   1.03991   16.340
 3923.00    1.19120   1.03425   16.353
 3924.00    1.14289   1.02851   16.703
 3925.00    1.11008   1.02439   16.942
 3926.00    1.03327   1.02377   17.554
 3927.00    0.99987   1.02505   17.837
 3928.00    1.05798   1.02601   17.331
 3929.00    1.06954   1.02699   17.252
 3930.00    1.04705   1.02780   17.455
 3931.00    1.03373   1.02565   17.595
 3932.00    1.04580   1.01316   17.524
 3933.00    0.93571   0.98356   18.548
 3934.00    0.84853   0.94550   19.493
 3935.00    0.88704   0.92591   19.078
 3936.00    0.89212   0.94288   19.049
 3937.00    0.93741   0.98020   18.609
 3938.00    1.00135   1.01191   18.039
 3939.00    1.05004   1.03015   17.641
 3940.00    1.10137   1.03869   17.264
 3941.00    1.05289   1.04296   17.701
 3942.00    1.00844   1.04565   18.133
 3943.00    1.06910   1.04595   17.639
 3944.00    1.11122   1.04282   17.314
 3945.00    1.03837   1.03721   17.934
 3946.00    1.02241   1.03136   18.113
 3947.00    0.99407   1.02739   18.415
 3948.00    1.04758   1.02676   18.004
 3949.00    1.07341   1.02894   17.795
 3950.00    1.06629   1.03230   17.880
 3951.00    1.05092   1.03495   18.056
 3952.00    1.03971   1.03532   18.174
 3953.00    1.08143   1.03329   17.836
 3954.00    1.08289   1.03034   17.881
 3955.00    1.04498   1.02749   18.260
 3956.00    1.02860   1.02436   18.465
 3957.00    1.00521   1.02043    0.000
 3958.00    1.00978   1.01664    0.000
 3959.00    1.02670   1.01385    0.000
 3960.00    1.00672   1.01095    0.000
 3961.00    1.05544   1.00587    0.000
 3962.00    1.06455   0.99753    0.000
 3963.00    1.01130   0.98686    0.000
 3964.00    1.04728   0.97425    0.000
 3965.00    1.11921   0.95915    0.000
 3966.00    1.45407   0.93977    0.000
 3967.00    2.17050   0.91027    0.000
 3968.00    2.56067   0.86440    0.000
 3969.00    3.60418   0.80825    0.000
 3970.00    4.96967   0.76422    0.000
 3971.00    4.75663   0.75201    0.000
 3972.00    4.31818   0.77203    0.000
 3973.00    3.31400   0.81268    0.000
 3974.00    1.70498   0.86023    0.000
 3975.00    1.13287   0.90308    0.000
 3976.00    1.06597   0.93560    0.000
 3977.00    0.99601   0.95851   19.690
 3978.00    0.94424   0.97405   20.237
 3979.00    0.90759   0.98500   20.684
 3980.00    0.97522   0.99389   19.993
 3981.00    1.06964   1.00176   19.115
 3982.00    1.07129   1.00775   19.124
 3983.00    1.05339   1.01124   19.302
 3984.00    1.04954   1.01202   19.361
 3985.00    0.99204   1.01141   19.939
 3986.00    0.92248   1.01052   20.712
 3987.00    0.92626   1.00865   20.696
 3988.00    0.99700   1.00718   19.966
 3989.00    1.10490   1.01071   18.995
 3990.00    1.10241   1.01889   19.021
 3991.00    0.96156   1.02463   20.365
 3992.00    0.98568   1.02728   20.106
 3993.00    1.01592   1.02817   19.803
 3994.00    1.01462   1.02768   19.822
 3995.00    1.02479   1.02601   19.710
 3996.00    1.07203   1.02390   19.271
 3997.00    1.12496   1.02239   18.824
 3998.00    1.06008   1.02190   19.387
 3999.00    0.95951   1.02284   20.356
 4000.00    1.01448   1.02417   19.796
 4001.00    1.02741   1.02430   19.643
 4002.00    1.01443   1.02314   19.757
 4003.00    1.04482   1.02205    0.000
 4004.00    1.03520   1.02072    0.000
 4005.00    0.98045   1.01835    0.000
 4006.00    0.94908   1.01543    0.000
 4007.00    0.97541   1.01342    0.000
 4008.00    1.03196   1.01292    0.000
 4009.00    1.07222   1.01337    0.000
 4010.00    1.00727   1.01373    0.000
 4011.00    1.03826   1.01450    0.000
 4012.00    1.05272   1.01753    0.000
 4013.00    0.93343   1.02269    0.000
 4014.00    0.93590   1.02740    0.000
 4015.00    0.99856   1.03022   19.691
 4016.00    1.03458   1.03140   19.321
 4017.00    1.05071   1.03194   19.148
 4018.00    0.98568   1.03296   19.751
 4019.00    0.95014   1.03439   20.104
 4020.00    0.97101   1.03527    0.000
 4021.00    0.96894   1.03485    0.000
 4022.00    1.02418   1.03256    0.000
 4023.00    1.07547   1.02775    0.000
 4024.00    1.10765   1.01818    0.000
 4025.00    1.16807   1.00195    0.000
 4026.00    1.29530   0.98322    0.000
 4027.00    1.27995   0.97124    0.000
 4028.00    1.26059   0.97332    0.000
 4029.00    1.19133   0.98765    0.000
 4030.00    1.09785   1.00445    0.000
 4031.00    1.06305   1.01464    0.000
 4032.00    1.05503   1.01677   18.957
 4033.00    1.05372   1.01442   18.954
 4034.00    1.03612   1.01188   19.104
 4035.00    1.00967   1.01201   19.340
 4036.00    0.96370   1.01610   19.787
 4037.00    0.95133   1.02308   19.925
 4038.00    0.99348   1.02981   19.505
 4039.00    0.97621   1.03391   19.665
 4040.00    0.98780   1.03485   19.562
 4041.00    1.06146   1.03380   18.865
 4042.00    1.03441   1.03231   19.129
 4043.00    0.99727   1.02984   19.485
 4044.00    1.03731   1.02441   19.108
 4045.00    1.00000   1.01620   19.485
 4046.00    1.02930   1.00809   19.226
 4047.00    0.95962   1.00425   19.933
 4048.00    0.94439   1.00708   20.116
 4049.00    0.91727   1.01500   20.440
 4050.00    0.89994   1.02401   20.657
 4051.00    0.91027   1.03084   20.566
 4052.00    0.98006   1.03461   19.855
 4053.00    1.03539   1.03587   19.333
 4054.00    0.96768   1.03495   20.038
 4055.00    0.99586   1.03248   19.790
 4056.00    1.01691   1.02970   19.618
 4057.00    0.98930   1.02679   19.919
 4058.00    0.90800   1.02401   20.814
 4059.00    0.95930   1.02255   20.277
 4060.00    0.98213   1.02283   20.076
 4061.00    0.92226   1.02320    0.000
 4062.00    0.96750   1.02111    0.000
 4063.00    0.97363   1.01524    0.000
 4064.00    0.96486   1.00614    0.000
 4065.00    0.97151   0.99384    0.000
 4066.00    0.93429   0.98020    0.000
 4067.00    0.94291   0.97275    0.000
 4068.00    1.11403   0.97605    0.000
 4069.00    1.29204   0.98201    0.000
 4070.00    1.29558   0.98308    0.000
 4071.00    1.26435   0.97965    0.000
 4072.00    1.19100   0.97551    0.000
 4073.00    1.01162   0.97371    0.000
 4074.00    0.99979   0.97465    0.000
 4075.00    1.04191   0.97630    0.000
 4076.00    1.07544   0.97631    0.000
 4077.00    1.08135   0.97388    0.000
 4078.00    1.09790   0.97126    0.000
 4079.00    1.05020   0.97207    0.000
 4080.00    0.98116   0.97761    0.000
 4081.00    0.95410   0.98581    0.000
 4082.00    0.97500   0.99290    0.000
 4083.00    1.01434   0.99603   20.444
 4084.00    1.00947   0.99460   20.494
 4085.00    1.01839   0.99058   20.415
 4086.00    1.00109   0.98699   20.626
 4087.00    0.98081   0.98592   20.846
 4088.00    0.94807   0.98678   21.244
 4089.00    0.99949   0.98757   20.721
 4090.00    1.00320   0.98648   20.700
 4091.00    0.94088   0.98376   21.395
 4092.00    0.88487   0.98125   22.091
 4093.00    0.93803   0.97976   21.474
 4094.00    0.91486   0.97653   21.750
 4095.00    0.90705   0.96804   21.867
 4096.00    0.90680   0.95316   21.879
 4097.00    0.90322   0.93314   21.938
 4098.00    1.01193   0.91038   20.742
 4099.00    1.03743   0.88527    0.000
 4100.00    1.73555   0.85545    0.000
 4101.00    4.42274   0.82095    0.000
 4102.00    6.65577   0.78843    0.000
 4103.00    6.90020   0.77028    0.000
 4104.00    6.30571   0.77768    0.000
 4105.00    4.02921   0.81012    0.000
 4106.00    1.68298   0.85383    0.000
 4107.00    1.05449   0.89329   -1.000
 4108.00    0.99904   0.92139   21.021
 4109.00    0.96423   0.93873   21.399
 4110.00    1.00456   0.94875   20.985
 4111.00    1.00693   0.95465   20.970
 4112.00    0.96348   0.95904   21.453
 4113.00    0.93070   0.96324   21.831
 4114.00    0.96226   0.96723   21.489
 4115.00    0.97432   0.97101   21.358
 4116.00    0.98402   0.97429    0.000
 4117.00    0.94505   0.97568    0.000
 4118.00    0.84830   0.97396    0.000
 4119.00    0.91024   0.96957    0.000
 4120.00    0.93658   0.96473    0.000
 4121.00    0.93467   0.96188    0.000
 4122.00    1.02086   0.96204    0.000
 4123.00    1.01838   0.96533    0.000
 4124.00    0.99204   0.97082    0.000
 4125.00    0.96577   0.97655    0.000
 4126.00    0.92910   0.98055   21.960
 4127.00    0.96634   0.98155   21.526
 4128.00    0.99102   0.97933   21.267
 4129.00    0.96972   0.97533   21.515
 4130.00    0.94453   0.97181   21.805
 4131.00    1.02028   0.96965   20.989
 4132.00    0.97405   0.96768   21.484
 4133.00    0.96388   0.96495   21.599
 4134.00    0.96370   0.96261   21.610
 4135.00    0.92590   0.96320   22.049
 4136.00    0.91843   0.96759   22.146
 4137.00    0.94580   0.97370   21.830
 4138.00    0.94023   0.97878   21.916
 4139.00    0.94223   0.98158    0.000
 4140.00    0.94061   0.98196    0.000
 4141.00    0.91831   0.97977    0.000
 4142.00    0.89812   0.97427    0.000
 4143.00    0.90956   0.96506    0.000
 4144.00    0.94123   0.95422    0.000
 4145.00    0.99846   0.94686    0.000
 4146.00    1.06204   0.94706    0.000
 4147.00    1.04582   0.95399    0.000
 4148.00    0.92471   0.96250   22.163
 4149.00    0.92747   0.96814   22.125
 4150.00    0.97074   0.97047   21.638
 4151.00    0.94366   0.97117   21.952
 4152.00    0.89980   0.97138   22.469
 4153.00    0.90446   0.97111   22.424
 4154.00    0.94956   0.97015   21.893
 4155.00    1.02176   0.96893   21.097
 4156.00    1.01248   0.96808   21.203
 4157.00    0.96585   0.96801   21.719
 4158.00    0.93484   0.96917   22.085
 4159.00    0.89967   0.97186   22.502
 4160.00    0.88881   0.97534   22.642
 4161.00    0.93475   0.97808   22.090
 4162.00    0.93348   0.97958   22.108
 4163.00    0.93035   0.98062   22.140
 4164.00    0.93378   0.98127   22.100
 4165.00    0.92634   0.98055   22.179
 4166.00    0.97011   0.97802   21.671
 4167.00    0.87336   0.97383   22.837
 4168.00    0.91519   0.96849   22.303
 4169.00    0.91787   0.96371   22.257
 4170.00    0.90497   0.96132   22.416
 4171.00    0.95466   0.96053   21.818
 4172.00    0.93486   0.95875   22.055
 4173.00    0.93886   0.95534   21.985
 4174.00    0.91610   0.95222   22.251
 4175.00    0.95287   0.95081   21.814
 4176.00    0.97670   0.95052   21.530
 4177.00    0.90534   0.95046   22.384
 4178.00    0.90568   0.95101   22.384
 4179.00    0.94032   0.95261   21.938
 4180.00    0.93863   0.95432   21.943
 4181.00    0.92593   0.95479   22.093
 4182.00    0.94744   0.95403   21.827
 4183.00    0.95311   0.95336   21.750
 4184.00    0.92475   0.95380   22.082
 4185.00    0.95977   0.95513   21.670
 4186.00    0.96286   0.95597   21.635
 4187.00    0.91654   0.95499   22.161
 4188.00    0.89756   0.95249   22.400
 4189.00    0.92037   0.94982   22.100
 4190.00    0.91496   0.94753   22.154
 4191.00    0.89084   0.94518   22.433
 4192.00    0.90332   0.94260   22.266
 4193.00    0.87671   0.94049   22.598
 4194.00    0.89468   0.93932   22.359
 4195.00    0.95357   0.93775   21.654
 4196.00    0.97249   0.93330   21.439
 4197.00    0.95865   0.92500   21.594
 4198.00    0.97503   0.91387   21.415
 4199.00    0.95386   0.90131   21.637
 4200.00    0.88322   0.88919   22.471
 4201.00    0.90061   0.88116   22.244
 4202.00    0.94961   0.88091   21.660
 4203.00    0.93616   0.88903   21.808
 4204.00    0.92234   0.90237   21.959
 4205.00    0.96012   0.91628   21.513
 4206.00    0.94947   0.92733   21.626
 4207.00    0.92242   0.93454   21.936
 4208.00    0.96608   0.93855   21.422
 4209.00    0.95893   0.94023   21.491
 4210.00    0.94868   0.94008   21.587
 4211.00    0.91911   0.93841   21.941
 4212.00    0.87309   0.93584   22.501
 4213.00    0.87216   0.93300   22.497
 4214.00    0.91037   0.92996   22.013
 4215.00    0.93883   0.92663   21.660
 4216.00    0.92258   0.92351   21.836
 4217.00    0.94204   0.92210   21.604
 4218.00    0.97601   0.92417   21.220
 4219.00    0.92991   0.92953   21.723
 4220.00    0.95884   0.93536   21.394
 4221.00    0.99822   0.93854   20.970
 4222.00    0.94822   0.93786   21.514
 4223.00    0.85921   0.93337   22.591
 4224.00    0.85095   0.92524   22.708
 4225.00    0.86152   0.91418   22.570
 4226.00    0.89250   0.90231   22.176
 4227.00    0.90203   0.89273   22.057
 4228.00    0.95232   0.88845   21.484
 4229.00    0.93906   0.89121   21.630
 4230.00    0.88480   0.89995   22.279
 4231.00    0.91935   0.91049   21.871
 4232.00    0.92511   0.91834   21.796
 4233.00    0.90999   0.92137   21.980
 4234.00    0.89769   0.92041   22.150
 4235.00    0.89973   0.91778   22.131
 4236.00    0.89588   0.91562   22.188
 4237.00    0.83399   0.91519   23.003
 4238.00    0.86540   0.91677   22.593
 4239.00    0.91856   0.91960   21.931
 4240.00    0.89997   0.92240   22.169
 4241.00    0.88610   0.92461   22.361
 4242.00    0.93690   0.92697   21.749
 4243.00    0.96158   0.93062   21.474
 4244.00    0.91970   0.93575   21.970
 4245.00    0.93516   0.94089   21.790
 4246.00    0.94145   0.94390   21.732
 4247.00    0.93814   0.94330   21.787
 4248.00    0.93918   0.93891   21.802
 4249.00    0.86078   0.93192   22.798
 4250.00    0.82875   0.92463   23.252
 4251.00    0.86631   0.91942   22.759
 4252.00    0.89225   0.91728   22.439
 4253.00    0.88546   0.91720   22.540
 4254.00    0.88608   0.91709   22.551
 4255.00    0.89960   0.91585   22.410
 4256.00    0.90432   0.91473   22.364
 4257.00    0.84667   0.91559   23.136
 4258.00    0.85981   0.91761   22.979
 4259.00    0.92525   0.91789   22.171
 4260.00    0.95613   0.91526   21.828
 4261.00    0.90669   0.91202   22.438
 4262.00    0.88049   0.91175   22.780
 4263.00    0.91691   0.91597   22.360
 4264.00    0.93439   0.92297   22.155
 4265.00    0.94170   0.92926   22.076
 4266.00    0.95082   0.93207   21.998
 4267.00    0.89760   0.93079   22.664
 4268.00    0.90042   0.92666   22.627
 4269.00    0.86952   0.92104   23.042
 4270.00    0.84670   0.91440   23.371
 4271.00    0.83206   0.90707   23.578
 4272.00    0.86716   0.90016   23.110
 4273.00    0.85575   0.89511   23.282
 4274.00    0.82931   0.89278   23.651
 4275.00    0.84111   0.89338   23.504
 4276.00    0.87274   0.89700   23.090
 4277.00    0.91202   0.90353   22.596
 4278.00    0.91959   0.91153   22.508
 4279.00    0.89450   0.91804   22.838
 4280.00    0.86297   0.92078   23.242
 4281.00    0.90456   0.92027   22.710
 4282.00    0.87508   0.91890   23.087
 4283.00    0.86066   0.91830   23.284
 4284.00    0.85870   0.91819   23.321
 4285.00    0.90485   0.91760   22.730
 4286.00    0.83575   0.91621   23.648
 4287.00    0.85723   0.91431   23.348
 4288.00    0.90777   0.91210   22.701
 4289.00    0.91639   0.90911   22.600
 4290.00    0.91169   0.90437   22.651
 4291.00    0.91341   0.89838   22.637
 4292.00    0.85422   0.89395   23.418
 4293.00    0.81731   0.89342   23.950
 4294.00    0.84288   0.89568   23.582
 4295.00    0.85947   0.89753   23.361
 4296.00    0.90512   0.89703   22.767
 4297.00    0.91755   0.89426   22.612
 4298.00    0.91751   0.88983   22.622
 4299.00    0.91668   0.88428   22.627
 4300.00    0.93227   0.87854   22.424
 4301.00    0.90842   0.87394   22.726
 4302.00    0.87038   0.87142   23.226
 4303.00    0.91127   0.87089   22.698
 4304.00    0.88647   0.87143   23.011
 4305.00    0.90291   0.87226   22.801
 4306.00    0.92843   0.87273   22.481
 4307.00    0.92122   0.87182   22.564
 4308.00    0.93114   0.86888   22.445
 4309.00    0.85968   0.86515   23.353
 4310.00    0.84133   0.86326   23.598
 4311.00    0.84974   0.86481   23.483
 4312.00    0.83488   0.86930   23.689
 4313.00    0.85871   0.87556   23.366
 4314.00    0.88923   0.88296   22.945
 4315.00    0.89897   0.89144   22.810
 4316.00    0.87482   0.90098   23.122
 4317.00    0.84103   0.91048   23.566
 4318.00    0.89008   0.91785   22.902
 4319.00    0.90277   0.92146   22.742
 4320.00    0.88785   0.92120   22.932
 4321.00    0.86838   0.91820   23.177
 4322.00    0.87008   0.91324   23.144
 4323.00    0.89961   0.90609   22.742
 4324.00    0.88311   0.89659   22.945
 4325.00    0.89182   0.88588   22.824
 4326.00    0.84025   0.87708   23.511
 4327.00    0.80987   0.87429   23.942
 4328.00    0.86883   0.87931   23.114
 4329.00    0.91280   0.88925   22.552
 4330.00    0.89944   0.89868   22.705
 4331.00    0.88614   0.90370   22.868
 4332.00    0.87911   0.90391   22.951
 4333.00    0.80807   0.90133   23.926
 4334.00    0.84523   0.89748   23.385
 4335.00    0.90548   0.89138   22.579
 4336.00    0.93724   0.88000   22.191
 4337.00    0.99734   0.85941   21.503
 4338.00    1.17743   0.82736   -1.000
 4339.00    3.21100   0.78618   -1.000
 4340.00    9.01408   0.74408    0.000
 4341.00   12.22272   0.71367    0.000
 4342.00   12.24572   0.70632    0.000
 4343.00   10.59441   0.72469    0.000
 4344.00    5.65239   0.76025    0.000
 4345.00    1.81114   0.79910    0.000
 4346.00    1.04571   0.83086    0.000
 4347.00    0.97746   0.85288    0.000
 4348.00    0.94904   0.86737    0.000
 4349.00    0.91544   0.87634    0.000
 4350.00    0.89844   0.87984    0.000
 4351.00    0.86576   0.87821    0.000
 4352.00    0.85199   0.87476    0.000
 4353.00    0.82550   0.87366    0.000
 4354.00    0.83466   0.87631    0.000
 4355.00    0.80958   0.88174    0.000
 4356.00    0.78991   0.88814    0.000
 4357.00    0.82459   0.89368    0.000
 4358.00    0.86464   0.89729    0.000
 4359.00    0.87222   0.89896    0.000
 4360.00    0.90493   0.89949    0.000
 4361.00    0.96926   0.89994    0.000
 4362.00    1.06104   0.90083    0.000
 4363.00    1.22928   0.90205    0.000
 4364.00    1.22272   0.90373    0.000
 4365.00    1.19052   0.90600    0.000
 4366.00    1.09449   0.90759    0.000
 4367.00    0.92189   0.90656   22.153
 4368.00    0.86093   0.90235   22.909
 4369.00    0.86034   0.89655   22.926
 4370.00    0.87948   0.89133   22.676
 4371.00    0.85454   0.88700   23.021
 4372.00    0.86214   0.88244   22.917
 4373.00    0.87344   0.87726   22.768
 4374.00    0.90253   0.87208   22.396
 4375.00    0.93210   0.86755   22.057
 4376.00    0.83391   0.86435   23.335
 4377.00    0.78000   0.86336   24.127
 4378.00    0.85193   0.86475   23.094
 4379.00    0.89500   0.86700   22.528
 4380.00    0.87550   0.86746   22.786
 4381.00    0.85971   0.86404   23.008
 4382.00    0.85959   0.85636    0.000
 4383.00    0.84090   0.84558    0.000
 4384.00    0.79910   0.83436    0.000
 4385.00    0.75703   0.82650    0.000
 4386.00    0.74305   0.82455    0.000
 4387.00    0.78317   0.82728    0.000
 4388.00    0.86645   0.83081    0.000
 4389.00    0.97580   0.83303    0.000
 4390.00    0.93107   0.83521    0.000
 4391.00    0.86109   0.83886    0.000
 4392.00    0.83582   0.84362    0.000
 4393.00    0.81238   0.84847   23.740
 4394.00    0.86815   0.85288   22.970
 4395.00    0.85492   0.85663   23.166
 4396.00    0.85670   0.86003   23.156
 4397.00    0.79049   0.86381   24.108
 4398.00    0.78843   0.86780   24.145
 4399.00    0.81441   0.87026   23.770
 4400.00    0.85567   0.86960   23.201
 4401.00    0.86533   0.86614   23.078
 4402.00    0.87376   0.86128   22.980
 4403.00    0.86658   0.85560   23.080
 4404.00    0.83955   0.84886   23.448
 4405.00    0.84617   0.84161   23.373
 4406.00    0.82736   0.83610   23.636
 4407.00    0.85063   0.83474   23.307
 4408.00    0.89308   0.83772   22.758
 4409.00    0.86936   0.84340   23.070
 4410.00    0.80211   0.85038   24.007
 4411.00    0.78102   0.85783   24.345
 4412.00    0.83147   0.86418   23.593
 4413.00    0.82267   0.86693   23.633
 4414.00    0.85404   0.86428   23.163
 4415.00    0.83946   0.85687   23.350
 4416.00    0.85802   0.84819   23.091
 4417.00    0.85975   0.84313   23.060
 4418.00    0.79661   0.84453   23.944
 4419.00    0.85097   0.85067   23.158
 4420.00    0.90708   0.85707   22.415
 4421.00    0.84959   0.86029   23.164
 4422.00    0.85862   0.85931   23.030
 4423.00    0.86955   0.85506   22.892
 4424.00    0.89463   0.84977   22.565
 4425.00    0.83595   0.84560   23.339
 4426.00    0.83103   0.84320   23.411
 4427.00    0.82758   0.84189   23.466
 4428.00    0.83530   0.84089   23.354
 4429.00    0.86340   0.84010   22.982
 4430.00    0.80310   0.83970   23.843
 4431.00    0.77290   0.83981   24.301
 4432.00    0.81709   0.84053   23.640
 4433.00    0.81772   0.84151   23.640
 4434.00    0.83454   0.84171   23.414
 4435.00    0.85926   0.84036   23.089
 4436.00    0.86605   0.83859   23.005
 4437.00    0.79250   0.83909   24.066
 4438.00    0.83866   0.84366   23.397
 4439.00    0.86877   0.85111   22.994
 4440.00    0.83869   0.85758   23.410
 4441.00    0.81288   0.85964   23.777
 4442.00    0.79740   0.85736   24.013
 4443.00    0.79640   0.85410   24.030
 4444.00    0.77659   0.85356   24.333
 4445.00    0.80755   0.85711   23.867
 4446.00    0.85460   0.86323   23.200
 4447.00    0.82235   0.86898   23.642
 4448.00    0.83504   0.87230   23.480
 4449.00    0.88669   0.87331   22.776
 4450.00    0.89030   0.87360   22.735
 4451.00    0.86107   0.87420   23.111
 4452.00    0.86675   0.87431   23.042
 4453.00    0.87281   0.87220   22.965
 4454.00    0.92107   0.86693   22.357
 4455.00    0.86211   0.85918   23.102
 4456.00    0.80607   0.85129   23.894
 4457.00    0.81019   0.84616   23.841
 4458.00    0.75914   0.84502   24.639
 4459.00    0.80979   0.84628   23.862
 4460.00    0.80516   0.84752   23.934
 4461.00    0.78244   0.84778   24.287
 4462.00    0.82732   0.84783   23.633
 4463.00    0.83294   0.84910   23.568
 4464.00    0.82546   0.85212   23.681
 4465.00    0.83860   0.85572    0.000
 4466.00    0.81694   0.85801    0.000
 4467.00    0.84242   0.85772    0.000
 4468.00    0.83950   0.85465    0.000
 4469.00    0.83971   0.84905    0.000
 4470.00    0.99640   0.84094    0.000
 4471.00    1.49497   0.83163    0.000
 4472.00    1.75335   0.82496    0.000
 4473.00    1.83181   0.82485    0.000
 4474.00    1.65528   0.83178    0.000
 4475.00    1.16020   0.84279    0.000
 4476.00    0.87634   0.85382    0.000
 4477.00    0.84639   0.86184    0.000
 4478.00    0.82326   0.86589   23.727
 4479.00    0.84946   0.86577   23.353
 4480.00    0.87199   0.86099   23.030
 4481.00    0.85279   0.85258   23.294
 4482.00    0.85946   0.84460   23.190
 4483.00    0.83093   0.84171   23.585
 4484.00    0.79592   0.84559   24.108
 4485.00    0.84680   0.85428   23.370
 4486.00    0.85814   0.86401   23.212
 4487.00    0.88538   0.87077   22.854
 4488.00    0.81743   0.87202   23.791
 4489.00    0.80343   0.86804   23.997
 4490.00    0.86455   0.86180   23.136
 4491.00    0.88388   0.85703   22.887
 4492.00    0.79279   0.85566   24.178
 4493.00    0.80748   0.85656   23.951
 4494.00    0.82520   0.85674   23.702
 4495.00    0.84308   0.85460   23.450
 4496.00    0.87351   0.85157   23.048
 4497.00    0.87806   0.85041   22.996
 4498.00    0.92607   0.85201   22.393
 4499.00    1.00293   0.85448   -1.000
 4500.00    0.91748   0.85535   22.513
 4501.00    0.81912   0.85406   23.837
 4502.00    0.78087   0.85236   24.415
 4503.00    0.83462   0.85272   23.625
 4504.00    0.82131   0.85656   23.825
 4505.00    0.80540   0.86292   24.061
 4506.00    0.84218   0.86903   23.545
 4507.00    0.81292   0.87248   23.978
 4508.00    0.80128   0.87265   24.162
 4509.00    0.80203   0.87074   24.157
 4510.00    0.84655   0.86837   23.527
 4511.00    0.86724   0.86636   23.251
 4512.00    0.84730   0.86454   23.538
 4513.00    0.83051   0.86226   23.785
 4514.00    0.87652   0.85909   23.169
 4515.00    0.85273   0.85572   23.496
 4516.00    0.81055   0.85347   24.110
 4517.00    0.84540   0.85284   23.615
 4518.00    0.84892   0.85311   23.582
 4519.00    0.86631   0.85349   23.356
 4520.00    0.85888   0.85425   23.460
 4521.00    0.75916   0.85598   24.952
 4522.00    0.78997   0.85805   24.481
 4523.00    0.84335   0.85871   23.703
 4524.00    0.84517   0.85670   23.697
 4525.00    0.86143   0.85217   23.472
 4526.00    0.83809   0.84621   23.810
 4527.00    0.83502   0.83965   23.869
 4528.00    0.81424   0.83272   24.173
 4529.00    0.80137   0.82590   24.387
 4530.00    0.80632   0.82040   24.316
 4531.00    0.74931   0.81779   25.243
 4532.00    0.75186   0.81863   25.201
 4533.00    0.77126   0.82147   24.898
 4534.00    0.83075   0.82369   24.005
 4535.00    0.77017   0.82366   24.931
 4536.00    0.77919   0.82221   24.787
 4537.00    0.80979   0.82197   24.343
 4538.00    0.88341   0.82475   23.295
 4539.00    0.87341   0.82887   23.440
 4540.00    0.82661   0.82999   24.110
 4541.00    0.82134   0.82512   24.183
 4542.00    0.81662   0.81596   24.255
 4543.00    0.77657   0.80791   24.890
 4544.00    0.79912   0.80550   24.536
 4545.00    0.83675   0.80916   23.978
 4546.00    0.86022   0.81592   23.652
 4547.00    0.85959   0.82249   23.664
 4548.00    0.84725   0.82729   23.832
 4549.00    0.82609   0.83023   24.139
 4550.00    0.82674   0.83160   24.130
 4551.00    0.82878   0.83192   24.110
 4552.00    0.79948   0.83203   24.546
 4553.00    0.82945   0.83214   24.103
 4554.00    0.81037   0.83171   24.383
 4555.00    0.82923   0.83049   24.096
 4556.00    0.79263   0.82946   24.655
 4557.00    0.79238   0.83043   24.664
 4558.00    0.81424   0.83460   24.332
 4559.00    0.80566   0.84110   24.455
 4560.00    0.81149   0.84754   24.362
 4561.00    0.80757   0.85201   24.418
 4562.00    0.85090   0.85387   23.791
 4563.00    0.82354   0.85298   24.183
 4564.00    0.81602   0.84958   24.288
 4565.00    0.84417   0.84477   23.877
 4566.00    0.80514   0.84037   24.451
 4567.00    0.79046   0.83797   24.670
 4568.00    0.83239   0.83806   24.045
 4569.00    0.81504   0.84009   24.287
 4570.00    0.84152   0.84243   23.889
 4571.00    0.88680   0.84312   23.264
 4572.00    0.90105   0.84161   23.072
 4573.00    0.87211   0.83927   23.453
 4574.00    0.91165   0.83806   22.933
 4575.00    0.83822   0.83874   23.924
 4576.00    0.79548   0.84033   24.531
 4577.00    0.80994   0.84151   24.309
 4578.00    0.83265   0.84159   23.965
 4579.00    0.85165   0.84010   23.691
 4580.00    0.85720   0.83654   23.604
 4581.00    0.77505   0.83132   24.822
 4582.00    0.81555   0.82632   24.193
 4583.00    0.78876   0.82342   24.583
 4584.00    0.82863   0.82293   23.971
 4585.00    0.84669   0.82364   23.699
 4586.00    0.86438   0.82411   23.432
 4587.00    0.78613   0.82424   24.569
 4588.00    0.77759   0.82524   24.683
 4589.00    0.82434   0.82789   23.959
 4590.00    0.82334   0.83124   23.961
 4591.00    0.88552   0.83328   23.104
 4592.00    0.87234   0.83283   23.251
 4593.00    0.78829   0.83020   24.456
 4594.00    0.76711   0.82656   24.782
 4595.00    0.86084   0.82319   23.376
 4596.00    0.90284   0.82095   22.807
 4597.00    0.85161   0.82023   23.470
 4598.00    0.79271   0.82087   24.319
 4599.00    0.82785   0.82211   23.769
 4600.00    0.82501   0.82299    0.000
 4601.00    0.78380   0.82298    0.000
 4602.00    0.80356   0.82221    0.000
 4603.00    0.82747   0.82117    0.000
 4604.00    0.77948   0.81992    0.000
 4605.00    0.82870   0.81788    0.000
 4606.00    0.86561   0.81521    0.000
 4607.00    0.77249   0.81382    0.000
 4608.00    0.73208   0.81554    0.000
 4609.00    0.83508   0.82023    0.000
 4610.00    0.82971   0.82624    0.000
 4611.00    0.87057   0.83154    0.000
 4612.00    0.85250   0.83431    0.000
 4613.00    0.82065   0.83403    0.000
 4614.00    0.83806   0.83195    0.000
 4615.00    0.77224   0.83024    0.000
 4616.00    0.80615   0.83022    0.000
 4617.00    0.83644   0.83153    0.000
 4618.00    0.89224   0.83289    0.000
 4619.00    0.77220   0.83349    0.000
 4620.00    0.82646   0.83348    0.000
 4621.00    0.84905   0.83331    0.000
 4622.00    0.85527   0.83320    0.000
 4623.00    0.84111   0.83338    0.000
 4624.00    0.82929   0.83380    0.000
 4625.00    0.85001   0.83389    0.000
 4626.00    0.79793   0.83307    0.000
 4627.00    0.76179   0.83126    0.000
 4628.00    0.77615   0.82891    0.000
 4629.00    0.77043   0.82678    0.000
 4630.00    0.77794   0.82513    0.000
 4631.00    0.73096   0.82372    0.000
 4632.00    0.75276   0.82275    0.000
 4633.00    0.78148   0.82279    0.000
 4634.00    0.80303   0.82365    0.000
 4635.00    0.81116   0.82415    0.000
 4636.00    0.80553   0.82334    0.000
 4637.00    0.81906   0.82116    0.000
 4638.00    0.77279   0.81785    0.000
 4639.00    0.77417   0.81366    0.000
 4640.00    0.73177   0.80937    0.000
 4641.00    0.74009   0.80641    0.000
 4642.00    0.78693   0.80599    0.000
 4643.00    0.82567   0.80808    0.000
 4644.00    0.82661   0.81096    0.000
 4645.00    0.80313   0.81178    0.000
 4646.00    0.80944   0.80834    0.000
 4647.00    0.76195   0.80083    0.000
 4648.00    0.75244   0.79197    0.000
 4649.00    0.79599   0.78553    0.000
 4650.00    0.73775   0.78402    0.000
 4651.00    0.69976   0.78762    0.000
 4652.00    0.80076   0.79473    0.000
 4653.00    0.82259   0.80253    0.000
 4654.00    0.83367   0.80817    0.000
 4655.00    0.81889   0.81058    0.000
 4656.00    0.80672   0.81084    0.000
 4657.00    0.78833   0.81095    0.000
 4658.00    0.78820   0.81275    0.000
 4659.00    0.81936   0.81712    0.000
 4660.00    0.83195   0.82329    0.000
 4661.00    0.83127   0.82891    0.000
 4662.00    0.84420   0.83115    0.000
 4663.00    0.81887   0.82899    0.000
 4664.00    0.75835   0.82394    0.000
 4665.00    0.76819   0.81801    0.000
 4666.00    0.76467   0.81185    0.000
 4667.00    0.77542   0.80520    0.000
 4668.00    0.83139   0.79817    0.000
 4669.00    0.83609   0.79213    0.000
 4670.00    0.84436   0.78921    0.000
 4671.00    0.82415   0.79051    0.000
 4672.00    0.82100   0.79491    0.000
 4673.00    0.79219   0.79980    0.000
 4674.00    0.74707   0.80302    0.000
 4675.00    0.74691   0.80413    0.000
 4676.00    0.78803   0.80425    0.000
 4677.00    0.80753   0.80449    0.000
 4678.00    0.82962   0.80495    0.000
 4679.00    0.89743   0.80464    0.000
 4680.00    0.81904   0.80246    0.000
 4681.00    0.75692   0.79845    0.000
 4682.00    0.82401   0.79370    0.000
 4683.00    0.80689   0.78925    0.000
 4684.00    0.74165   0.78542    0.000
 4685.00    0.73661   0.78168    0.000
 4686.00    0.75206   0.77733    0.000
 4687.00    0.71183   0.77280    0.000
 4688.00    0.72160   0.77009    0.000
 4689.00    0.76848   0.77140    0.000
 4690.00    0.76670   0.77690    0.000
 4691.00    0.75976   0.78419    0.000
 4692.00    0.80739   0.79024    0.000
 4693.00    0.78299   0.79377    0.000
 4694.00    0.82434   0.79569    0.000
 4695.00    0.79773   0.79742    0.000
 4696.00    0.79360   0.79920    0.000
 4697.00    0.80974   0.80021    0.000
 4698.00    0.77186   0.79954    0.000
 4699.00    0.78501   0.79672    0.000
 4700.00    0.78304   0.79218    0.000
 4701.00    0.80835   0.78744    0.000
 4702.00    0.79650   0.78407    0.000
 4703.00    0.75258   0.78232    0.000
 4704.00    0.74239   0.78142    0.000
 4705.00    0.75178   0.78111    0.000
 4706.00    0.78008   0.78158    0.000
 4707.00    0.74125   0.78243    0.000
 4708.00    0.71134   0.78263    0.000
 4709.00    0.72913   0.78148    0.000
 4710.00    0.76917   0.77951    0.000
 4711.00    0.75404   0.77799    0.000
 4712.00    0.81723   0.77737    0.000
 4713.00    0.92284   0.77671    0.000
 4714.00    0.93687   0.77512    0.000
 4715.00    0.91360   0.77323    0.000
 4716.00    0.85743   0.77266    0.000
 4717.00    0.81396   0.77469    0.000
 4718.00    0.82546   0.77932    0.000
 4719.00    0.81934   0.78511    0.000
 4720.00    0.82391   0.79021    0.000
 4721.00    0.78307   0.79364    0.000
 4722.00    0.79001   0.79534    0.000
 4723.00    0.81439   0.79558    0.000
 4724.00    0.82052   0.79485    0.000
 4725.00    0.76437   0.79388    0.000
 4726.00    0.78879   0.79287    0.000
 4727.00    0.84317   0.79067    0.000
 4728.00    0.77621   0.78572    0.000
 4729.00    0.77617   0.77793    0.000
 4730.00    0.78019   0.76963    0.000
 4731.00    0.77247   0.76397    0.000
 4732.00    0.83353   0.76264    0.000
 4733.00    0.81363   0.76517    0.000
 4734.00    0.74086   0.76954    0.000
 4735.00    0.73471   0.77343    0.000
 4736.00    0.77060   0.77549    0.000
 4737.00    0.80305   0.77570    0.000
 4738.00    0.82902   0.77521    0.000
 4739.00    0.82425   0.77527    0.000
 4740.00    0.78920   0.77610    0.000
 4741.00    0.77524   0.77692    0.000
 4742.00    0.81023   0.77673    0.000
 4743.00    0.81943   0.77540    0.000
 4744.00    0.78986   0.77395    0.000
 4745.00    0.79272   0.77338    0.000
 4746.00    0.81512   0.77392    0.000
 4747.00    0.78570   0.77530    0.000
 4748.00    0.77923   0.77715    0.000
 4749.00    0.74527   0.77917    0.000
 4750.00    0.74045   0.78106    0.000
 4751.00    0.77646   0.78244   24.756
 4752.00    0.78017   0.78263   24.703
 4753.00    0.78175   0.78109   24.665
 4754.00    0.79733   0.77799   24.417
 4755.00    0.79395   0.77418   24.462
 4756.00    0.80660   0.77077   24.272
 4757.00    0.78116   0.76860   24.654
 4758.00    0.79356   0.76774   24.458
 4759.00    0.80391   0.76764   24.299
 4760.00    0.72122   0.76763   25.646
 4761.00    0.69941   0.76725   26.033
 4762.00    0.72028   0.76598   25.647
 4763.00    0.76187   0.76332   24.937
 4764.00    0.79134   0.75916   24.465
 4765.00    0.78657   0.75414   24.534
 4766.00    0.74290   0.74954   25.251
 4767.00    0.77043   0.74663   24.793
 4768.00    0.74923   0.74599   25.142
 4769.00    0.74010   0.74776   25.294
 4770.00    0.76985   0.75166   24.794
 4771.00    0.75681   0.75629   25.011
 4772.00    0.72681   0.75935   25.521
 4773.00    0.77068   0.75975   24.783
 4774.00    0.76155   0.75898   24.924
 4775.00    0.77556   0.75951   24.693
 4776.00    0.79905   0.76208   24.335
 4777.00    0.76851   0.76522   24.820
 4778.00    0.75527   0.76717   25.026
 4779.00    0.72464   0.76721   25.559
 4780.00    0.71655   0.76576   25.701
 4781.00    0.75240   0.76359   25.075
 4782.00    0.77543   0.76103   24.712
 4783.00    0.82919   0.75802   23.884
 4784.00    0.81377   0.75460   24.108
 4785.00    0.80812   0.75125   24.193
 4786.00    0.79969   0.74883   24.308
 4787.00    0.78568   0.74790   24.522
 4788.00    0.78144   0.74835   24.594
 4789.00    0.76731   0.74945   24.816
 4790.00    0.78958   0.75050   24.459
 4791.00    0.82145   0.75153   23.971
 4792.00    0.79150   0.75322   24.416
 4793.00    0.77540   0.75617   24.664
 4794.00    0.78372   0.76040   24.538
 4795.00    0.74725   0.76536   25.119
 4796.00    0.74502   0.76999   25.150
 4797.00    0.79251   0.77298   24.381
 4798.00    0.80492   0.77316   24.186
 4799.00    0.72387   0.77031   25.499
 4800.00    0.73042   0.76565   25.370
 4801.00    0.73933   0.76150   25.208
 4802.00    0.75646   0.75995   24.910
 4803.00    0.81104   0.76148   24.062
 4804.00    0.77261   0.76459   24.661
 4805.00    0.72929   0.76680   25.371
 4806.00    0.77992   0.76647   24.524
 4807.00    0.79490   0.76386   24.298
 4808.00    0.75875   0.76041   24.863
 4809.00    0.77774   0.75746   24.554
 4810.00    0.75799   0.75582   24.872
 4811.00    0.71586   0.75573   25.589
 4812.00    0.74074   0.75668   25.148
 4813.00    0.76297   0.75777   24.777
 4814.00    0.82021   0.75850   23.903
 4815.00    0.78076   0.75903   24.498
 4816.00    0.72998   0.75997   25.330
 4817.00    0.75199   0.76162   24.957
 4818.00    0.72960   0.76370   25.333
 4819.00    0.77359   0.76571   24.605
 4820.00    0.77024   0.76725   24.653
 4821.00    0.72929   0.76790   25.334
 4822.00    0.73369   0.76706   25.250
 4823.00    0.72397   0.76420   25.411
 4824.00    0.77214   0.75953   24.612
 4825.00    0.80200   0.75434   24.128
 4826.00    0.73575   0.75055   25.201
 4827.00    0.72528   0.74943   25.362
 4828.00    0.77047   0.75047   24.601
 4829.00    0.68939   0.75160   26.003
 4830.00    0.69219   0.75114   25.935
 4831.00    0.75572   0.74922   24.817
 4832.00    0.80734   0.74693   24.009
 4833.00    0.80871   0.74495   23.974
 4834.00    0.80456   0.74370   24.035
 4835.00    0.76491   0.74385   24.634
 4836.00    0.76184   0.74567   24.679
 4837.00    0.76780   0.74837   24.591
 4838.00    0.76593   0.75052   24.617
 4839.00    0.71402   0.75106   25.495
 4840.00    0.71450   0.74991   25.472
 4841.00    0.72653   0.74786   25.260
 4842.00    0.73166   0.74594   25.167
 4843.00    0.72699   0.74451   25.245
 4844.00    0.79947   0.74334   24.070
 4845.00    0.81544   0.74245   23.821
 4846.00    0.78444   0.74240   24.273
 4847.00    0.85438   0.74348   23.261
 4848.00    0.78094   0.74468   24.319
 4849.00    0.79513   0.74456   24.084
 4850.00    0.82032   0.74290   23.682
 4851.00    0.81091   0.74073   23.799
 4852.00    0.82187   0.73881   23.618
 4853.00    0.81445   0.73674   23.711
 4854.00    0.78657   0.73342   24.100
 4855.00    0.83204   0.72792   23.416
 4856.00    0.89606   0.71994   -1.000
 4857.00    0.93014   0.70998    0.000
 4858.00    1.03610   0.69861    0.000
 4859.00    2.13229   0.68501    0.000
 4860.00    8.93465   0.66685    0.000
 4861.00   23.23318   0.64285    0.000
 4862.00   30.57191   0.61609    0.000
 4863.00   30.13826   0.59456    0.000
 4864.00   24.49766   0.58692    0.000
 4865.00   11.03851   0.59628    0.000
 4866.00    2.64465   0.61838    0.000
 4867.00    1.10008   0.64533    0.000
 4868.00    0.90200   0.67015    0.000
 4869.00    0.84379   0.68903    0.000
 4870.00    0.84402   0.70104    0.000
 4871.00    0.83669   0.70675   -1.000
 4872.00    0.84309   0.70744   -1.000
 4873.00    0.83479   0.70559   23.271
 4874.00    0.81542   0.70483   23.559
 4875.00    0.74928   0.70781   24.592
 4876.00    0.72936   0.71410   24.928
 4877.00    0.77362   0.72107   24.216
 4878.00    0.74183   0.72664   24.744
 4879.00    0.73766   0.73067   24.820
 4880.00    0.74062   0.73378   24.781
 4881.00    0.77573   0.73588   24.218
 4882.00    0.79801   0.73633   23.883
 4883.00    0.72784   0.73510   25.006
 4884.00    0.73609   0.73315   24.875
 4885.00    0.75514   0.73132   24.550
 4886.00    0.74933   0.72938   24.645
 4887.00    0.77796   0.72681   24.181
 4888.00    0.76209   0.72407   24.431
 4889.00    0.73797   0.72219   24.825
 4890.00    0.74317   0.72112   24.738
 4891.00    0.77730   0.71952   24.186
 4892.00    0.77185   0.71684   24.274
 4893.00    0.71421   0.71494   25.238
 4894.00    0.70372   0.71711   25.431
 4895.00    0.73997   0.72488   24.808
 4896.00    0.76836   0.73617   24.354
 4897.00    0.76311   0.74691   24.440
 4898.00    0.76883   0.75406   24.360
 4899.00    0.80882   0.75701   23.764
 4900.00    0.80202   0.75650   23.875
 4901.00    0.80433   0.75351   23.858
 4902.00    0.77883   0.74945   24.260
 4903.00    0.71788   0.74584   25.291
 4904.00    0.68505   0.74350   25.896
 4905.00    0.76895   0.74257   24.467
 4906.00    0.82918   0.74346   23.571
 4907.00    0.74800   0.74642   24.832
 4908.00    0.78558   0.75004   24.245
 4909.00    0.78102   0.75155   24.323
 4910.00    0.77548   0.74912   24.426
 4911.00    0.76953   0.74370   24.535
 4912.00    0.79587   0.73831   24.135
 4913.00    0.74609   0.73577   24.928
 4914.00    0.71110   0.73667    0.000
 4915.00    0.74082   0.73959    0.000
 4916.00    0.72968   0.74274    0.000
 4917.00    0.76587   0.74461    0.000
 4918.00    0.71239   0.74341    0.000
 4919.00    0.74768   0.73707    0.000
 4920.00    0.82003   0.72489    0.000
 4921.00    0.91807   0.70929    0.000
 4922.00    0.98865   0.69554    0.000
 4923.00    0.95726   0.68869    0.000
 4924.00    0.98884   0.69048    0.000
 4925.00    0.89298   0.69866    0.000
 4926.00    0.76639   0.70912    0.000
 4927.00    0.75290   0.71897    0.000
 4928.00    0.76353   0.72767    0.000
 4929.00    0.76482   0.73574   24.771
 4930.00    0.75274   0.74314   24.972
 4931.00    0.78196   0.74897   24.515
 4932.00    0.79386   0.75206   24.342
 4933.00    0.81981   0.75166   23.972
 4934.00    0.76582   0.74797   24.818
 4935.00    0.79918   0.74250   24.308
 4936.00    0.79741   0.73756   24.347
 4937.00    0.76061   0.73445   24.939
 4938.00    0.70599   0.73190   25.898
 4939.00    0.66492   0.72776   26.706
 4940.00    0.71539   0.72246   25.772
 4941.00    0.72383   0.71934   25.563
 4942.00    0.73764   0.72119   25.348
 4943.00    0.75857   0.72735    0.000
 4944.00    0.79065   0.73469    0.000
 4945.00    0.79795   0.74044    0.000
 4946.00    0.78963   0.74346    0.000
 4947.00    0.79146   0.74422    0.000
 4948.00    0.81138   0.74433    0.000
 4949.00    0.82143   0.74538    0.000
 4950.00    0.81055   0.74770    0.000
 4951.00    0.79354   0.75044    0.000
 4952.00    0.84747   0.75248    0.000
 4953.00    0.93573   0.75302    0.000
 4954.00    0.97536   0.75156    0.000
 4955.00    1.03687   0.74778    0.000
 4956.00    1.39079   0.74114    0.000
 4957.00    3.90048   0.73102    0.000
 4958.00   14.72491   0.71818    0.000
 4959.00   28.46189   0.70590    0.000
 4960.00   31.41444   0.69907    0.000
 4961.00   28.56299   0.70083    0.000
 4962.00   19.45211   0.70924    0.000
 4963.00    6.73254   0.71868    0.000
 4964.00    1.77222   0.72451    0.000
 4965.00    1.05443   0.72534    0.000
 4966.00    0.91661   0.72231    0.000
 4967.00    0.84695   0.71760    0.000
 4968.00    0.82139   0.71334    0.000
 4969.00    0.78805   0.71083    0.000
 4970.00    0.83906   0.71053    0.000
 4971.00    0.82030   0.71250    0.000
 4972.00    0.77883   0.71640   24.829
 4973.00    0.77973   0.72129   24.821
 4974.00    0.83114   0.72598   24.042
 4975.00    0.79592   0.72947   24.564
 4976.00    0.76106   0.73127   25.114
 4977.00    0.72543   0.73125   25.734
 4978.00    0.74255   0.72944   25.444
 4979.00    0.82199   0.72608   24.179
 4980.00    0.76929   0.72178   24.997
 4981.00    0.73960   0.71694   25.495
 4982.00    0.80425   0.71134   24.448
 4983.00    0.78397   0.70448   24.757
 4984.00    0.81949   0.69693   24.215
 4985.00    0.87578   0.69103   -1.000
 4986.00    0.84058   0.68944   -1.000
 4987.00    0.87131   0.69308   -1.000
 4988.00    0.90316   0.70032   -1.000
 4989.00    0.82987   0.70808   24.062
 4990.00    0.83946   0.71346   -1.000
 4991.00    0.82156   0.71534   24.199
 4992.00    0.83986   0.71466   23.933
 4993.00    0.83605   0.71356   23.986
 4994.00    0.86580   0.71361   -1.000
 4995.00    0.87473   0.71491    0.000
 4996.00    0.85554   0.71653    0.000
 4997.00    0.87833   0.71773    0.000
 4998.00    0.92864   0.71818    0.000
 4999.00    0.97460   0.71732    0.000
 5000.00    1.04672   0.71397    0.000
 5001.00    1.10355   0.70782    0.000
 5002.00    1.24313   0.70075    0.000
 5003.00    1.56557   0.69549    0.000
 5004.00    2.74370   0.69313    0.000
 5005.00   11.45361   0.69242    0.000
 5006.00   45.38005   0.69146    0.000
 5007.00   84.71133   0.68947    0.000
 5008.00   92.57359   0.68748    0.000
 5009.00   83.94260   0.68744    0.000
 5010.00   56.13649   0.69035    0.000
 5011.00   17.63688   0.69473   -1.000
 5012.00    3.42888   0.69728   -1.000
 5013.00    1.72518   0.69560   -1.000
 5014.00    1.47504   0.68968   -1.000
 5015.00    1.58084   0.68165   -1.000
 5016.00    1.63797   0.67458   -1.000
 5017.00    1.54093   0.67099   -1.000
 5018.00    1.41039   0.67171   -1.000
 5019.00    1.17566   0.67585   -1.000
 5020.00    0.97327   0.68154   -1.000
 5021.00    0.89590   0.68678   -1.000
 5022.00    0.83304   0.69025   -1.000
 5023.00    0.78885   0.69166   24.530
 5024.00    0.77300   0.69192   24.777
 5025.00    0.79499   0.69265   24.432
 5026.00    0.76600   0.69488   24.886
 5027.00    0.76458   0.69781   24.905
 5028.00    0.76812   0.69964   24.843
 5029.00    0.74941   0.69964   25.160
 5030.00    0.71882   0.69919   25.684
 5031.00    0.73662   0.70039   25.377
 5032.00    0.78903   0.70406   24.517
 5033.00    0.76531   0.70922   24.898
 5034.00    0.70994   0.71387   25.846
 5035.00    0.76780   0.71610   24.865
 5036.00    0.77220   0.71467   24.796
 5037.00    0.73366   0.70978   25.431
 5038.00    0.69918   0.70331   26.053
 5039.00    0.65660   0.69732   26.894
 5040.00    0.66775   0.69182   26.679
 5041.00    0.75670   0.68524   25.051
 5042.00    0.79306   0.67774   24.466
 5043.00    0.74819   0.67269   25.193
 5044.00    0.73363   0.67392   25.437
 5045.00    0.68004   0.68201   26.422
 5046.00    0.74025   0.69380   25.322
 5047.00    0.75878   0.70457   25.010
 5048.00    0.77347   0.71057   24.761
 5049.00    0.80231   0.71057   24.315
 5050.00    0.81499   0.70574   24.118
 5051.00    0.77863   0.69883   24.667
 5052.00    0.74221   0.69303   25.273
 5053.00    0.70566   0.69072   25.912
 5054.00    0.67411   0.69228   26.504
 5055.00    0.69040   0.69639   26.192
 5056.00    0.68710   0.70124   26.259
 5057.00    0.72152   0.70546   25.625
 5058.00    0.75247   0.70859   25.097
 5059.00    0.76715   0.71110   24.859
 5060.00    0.71901   0.71360   25.677
 5061.00    0.67973   0.71636   26.403
 5062.00    0.69188   0.71900   26.178
 5063.00    0.75918   0.72046   24.994
 5064.00    0.77002   0.71921   24.820
 5065.00    0.68945   0.71436   26.242
 5066.00    0.68750   0.70687   26.278
 5067.00    0.70770   0.69929   25.896
 5068.00    0.68854   0.69404   26.252
 5069.00    0.70492   0.69181   25.950
 5070.00    0.72840   0.69180   25.534
 5071.00    0.72467   0.69294   25.609
 5072.00    0.71932   0.69430   25.699
 5073.00    0.70738   0.69507   25.914
 5074.00    0.71758   0.69506   25.732
 5075.00    0.69896   0.69499   26.076
 5076.00    0.70413   0.69549   25.973
 5077.00    0.68824   0.69619   26.268
 5078.00    0.64710   0.69609   27.097
 5079.00    0.65719   0.69426   26.883
 5080.00    0.68600   0.69025   26.320
 5081.00    0.68901   0.68465   26.266
 5082.00    0.66135   0.67929   26.815
 5083.00    0.66542   0.67613   26.719
 5084.00    0.72548   0.67588   25.602
 5085.00    0.74190   0.67804   25.313
 5086.00    0.69479   0.68172   26.162
 5087.00    0.65764   0.68613   26.878
 5088.00    0.69768   0.69046   26.108
 5089.00    0.68056   0.69399   26.420
 5090.00    0.67378   0.69649   26.548
 5091.00    0.65418   0.69827   26.952
 5092.00    0.70389   0.69992   25.997
 5093.00    0.73317   0.70193   25.476
 5094.00    0.42813   0.70428   -1.000
 5095.00    0.01076   0.70603   -1.000
 5096.00    0.51427   0.70569   -1.000
 5097.00    0.72085   0.70219   25.686
 5098.00    0.73275   0.69615   25.479
 5099.00    0.67289   0.68954   26.585
 5100.00    0.71995   0.68424   25.707
 5101.00    0.75315   0.68139   25.124
 5102.00    0.70850   0.68147   25.905
 5103.00    0.68986   0.68389   26.262
 5104.00    0.67647   0.68693   26.520
 5105.00    0.71311   0.68873   25.836
 5106.00    0.72262   0.68852   25.657
 5107.00    0.67486   0.68673   26.555
 5108.00    0.67549   0.68417   26.543
 5109.00    0.66442   0.68144   26.767
 5110.00    0.70434   0.67917   25.999
 5111.00    0.72083   0.67806   25.709
 5112.00    0.71969   0.67853   25.723
 5113.00    0.67588   0.68049   26.547
 5114.00    0.61923   0.68344   27.735
 5115.00    0.66696   0.68686   26.721
 5116.00    0.70824   0.69060   25.924
 5117.00    0.73130   0.69460   25.509
 5118.00    0.72110   0.69850   25.690
 5119.00    0.69297   0.70159   26.203
 5120.00    0.72343   0.70293   25.638
 5121.00    0.73791   0.70180   25.382
 5122.00    0.68700   0.69825   26.303
 5123.00    0.66893   0.69295   26.657
 5124.00    0.69588   0.68663   26.136
 5125.00    0.76273   0.68018   24.956
 5126.00    0.74278   0.67474   25.284
 5127.00    0.69709   0.67125   26.106
 5128.00    0.68242   0.66997   26.374
 5129.00    0.68123   0.67022   26.395
 5130.00    0.69148   0.67109   26.185
 5131.00    0.69372   0.67225   26.138
 5132.00    0.66075   0.67428   26.778
 5133.00    0.66842   0.67780   26.624
 5134.00    0.73268   0.68237   25.424
 5135.00    0.73111   0.68666   25.447
 5136.00    0.74254   0.68971   25.250
 5137.00    0.70687   0.69129   25.868
 5138.00    0.67152   0.69120   26.535
 5139.00    0.67720   0.68909   26.418
 5140.00    0.65144   0.68541   26.923
 5141.00    0.69144   0.68182   26.126
 5142.00    0.72366   0.67983   25.530
 5143.00    0.71645   0.67950   25.663
 5144.00    0.69597   0.67975   26.036
 5145.00    0.61374   0.67954   27.721
 5146.00    0.61288   0.67844   27.734
 5147.00    0.71525   0.67637   25.663
 5148.00    0.70675   0.67367   25.814
 5149.00    0.63210   0.67147   27.281
 5150.00    0.67621   0.67080   26.374
 5151.00    0.68460   0.67122   26.217
 5152.00    0.66111   0.67116   26.673
 5153.00    0.64628   0.66951   26.964
 5154.00    0.67415   0.66679   26.398
 5155.00    0.66270   0.66457   26.607
 5156.00    0.64522   0.66469   26.973
 5157.00    0.65762   0.66842   26.713
 5158.00    0.66585   0.67559   26.545
 5159.00    0.64935   0.68423   26.879
 5160.00    0.66460   0.69171   26.557
 5161.00    0.69888   0.69616   25.897
 5162.00    0.71005   0.69704   25.686
 5163.00    0.67720   0.69474   26.292
 5164.00    0.65798   0.68990   26.667
 5165.00    0.68216   0.68272   26.187
 5166.00    0.60770   0.67256   27.743
 5167.00    0.59881   0.65851   27.941
 5168.00    0.62934   0.64152   27.243
 5169.00    0.61617   0.62550   27.536
 5170.00    0.65113   0.61528   26.781
 5171.00    0.68075   0.61225   26.175
 5172.00    0.67629   0.61292   26.267
 5173.00    0.66051   0.61240   26.572
 5174.00    0.62894   0.60985   27.230
 5175.00    0.58214   0.60920   28.295
 5176.00    0.59069   0.61451   28.094
 5177.00    0.65131   0.62569   26.745
 5178.00    0.61602   0.63846   27.493
 5179.00    0.61785   0.64839   27.438
 5180.00    0.61269   0.65332   27.550
 5181.00    0.66921   0.65285   26.359
 5182.00    0.69690   0.64696   25.817
 5183.00    0.69284   0.63616   25.891
 5184.00    0.70542   0.62274   25.646
 5185.00    0.67416   0.61163   26.236
 5186.00    0.64924   0.60833   26.725
 5187.00    0.65376   0.61538   26.633
 5188.00    0.66655   0.62983   26.370
 5189.00    0.67751   0.64567   26.159
 5190.00    0.71625   0.65777    0.000
 5191.00    0.66136   0.66411    0.000
 5192.00    0.65341   0.66482    0.000
 5193.00    0.72009   0.66116    0.000
 5194.00    0.70994   0.65550    0.000
 5195.00    0.64532   0.65122    0.000
 5196.00    0.68614   0.65062    0.000
 5197.00    0.70868   0.65356    0.000
 5198.00    0.74035   0.65862    0.000
 5199.00    0.78725   0.66457    0.000
 5200.00    0.74172   0.67020    0.000
 5201.00    0.78616   0.67414    0.000
 5202.00    0.76204   0.67535    0.000
 5203.00    0.64701   0.67336    0.000
 5204.00    0.67267   0.66813    0.000
 5205.00    0.70540   0.65973    0.000
 5206.00    0.67660   0.64863   26.125
 5207.00    0.63606   0.63663   26.922
 5208.00    0.62167   0.62636   27.230
 5209.00    0.61679   0.61982   27.331
 5210.00    0.60633   0.61766   27.551
 5211.00    0.63254   0.62019   26.982
 5212.00    0.61772   0.62783   27.306
 5213.00    0.67134   0.64011   26.179
 5214.00    0.64236   0.65429   26.773
 5215.00    0.65941   0.66623   26.418
 5216.00    0.70960   0.67279   25.460
 5217.00    0.70645   0.67397   25.504
 5218.00    0.65553   0.67269   26.480
 5219.00    0.61916   0.67257   27.239
 5220.00    0.58754   0.67540   27.955
 5221.00    0.62257   0.68037   27.154
 5222.00    0.63074   0.68516   26.960
 5223.00    0.68553   0.68726   25.860
 5224.00    0.67844   0.68468   25.984
 5225.00    0.63489   0.67655   26.852
 5226.00    0.62429   0.66425   27.076
 5227.00    0.61173   0.65179   27.345
 5228.00    0.62045   0.64361   27.158
 5229.00    0.65433   0.64238   26.435
 5230.00    0.65319   0.64838   26.458
 5231.00    0.68425   0.65900   25.847
 5232.00    0.71888   0.66952   25.205
 5233.00    0.71699   0.67552   25.243
 5234.00    0.69788   0.67571   25.585
 5235.00    0.67929   0.67258   25.939
 5236.00    0.62766   0.67053   26.984
 5237.00    0.62459   0.67258   27.043
 5238.00    0.59582   0.67849   27.680
 5239.00    0.65767   0.68549   26.371
 5240.00    0.75022   0.69056   24.672
 5241.00    0.66862   0.69242   26.142
 5242.00    0.62044   0.69175   27.120
 5243.00    0.59994   0.69033   27.599
 5244.00    0.66173   0.68967   26.271
 5245.00    0.63134   0.68996   26.891
 5246.00    0.62382   0.68976   27.045
 5247.00    0.62697   0.68705   26.977
 5248.00    0.60027   0.68122   27.573
 5249.00    0.59126   0.67401   27.782
 5250.00    0.55356   0.66819   -1.000
 5251.00    0.60243   0.66508   27.521
 5252.00    0.64219   0.66421   26.639
 5253.00    0.61604   0.66473   27.199
 5254.00    0.61899   0.66621   27.135
 5255.00    0.61335   0.66816   27.251
 5256.00    0.62959   0.67017   26.893
 5257.00    0.66620   0.67266   26.150
 5258.00    0.65559   0.67677   26.346
 5259.00    0.64448   0.68268   26.571
 5260.00    0.65346   0.68836   26.370
 5261.00    0.69790   0.69077   25.523
 5262.00    0.67726   0.68781   25.893
 5263.00    0.65573   0.67956   26.300
 5264.00    0.62229   0.66757   26.991
 5265.00    0.64483   0.65432   26.511
 5266.00    0.72824   0.64237   24.943
 5267.00    0.67979   0.63383   25.809
 5268.00    0.61006   0.62935   27.235
 5269.00    0.61247   0.62763   27.174
 5270.00    0.62174   0.62592   26.961
 5271.00    0.65768   0.62301   26.205
 5272.00    0.69675   0.62141   25.441
 5273.00    0.68517   0.62502   25.643
 5274.00    0.69130   0.63486   25.524
 5275.00    0.70083   0.64706   25.361
 5276.00    0.62709   0.65711   26.812
 5277.00    0.58494   0.66379   27.757
 5278.00    0.61464   0.66918   27.076
 5279.00    0.63698   0.67531   26.590
 5280.00    0.62145   0.68142   26.925
 5281.00    0.70165   0.68479   25.332
 5282.00    0.70457   0.68339   25.283
 5283.00    0.67406   0.67781   25.845
 5284.00    0.68099   0.67090   25.718
 5285.00    0.65826   0.66648   26.149
 5286.00    0.64294   0.66754   26.467
 5287.00    0.69820   0.67424   25.401
 5288.00    0.66413   0.68375   26.041
 5289.00    0.68223   0.69196   25.693
 5290.00    0.70773   0.69643   25.218
 5291.00    0.68543   0.69762   25.630
 5292.00    0.64778   0.69742   26.354
 5293.00    0.65678   0.69707   26.173
 5294.00    0.64595   0.69654   26.392
 5295.00    0.66170   0.69521   26.063
 5296.00    0.66277   0.69221   26.037
 5297.00    0.65204   0.68642   26.237
 5298.00    0.58964   0.67741   27.588
 5299.00    0.58267   0.66719   27.754
 5300.00    0.58314   0.65950   27.725
