###################################################################
## OUTPUT of StarlightChains_v04.for    [Cid@UFSC - 01/Apr/2007] ##
###################################################################

## Some input info
M33_LS1_20211119f_1.spec                 [arq_obs]
Base.BC03.N                              [arq_base]
Mask.EmLines_CHAOS_focusbluefit.gm       [arq_masks]
StCv04.C11.config                        [arq_config]
   45                                    [N_base]
    0                                    [N_YAV_components = # of components with extra extinction!]
    0                                    [i_FitPowerLaw (1/0 = Yes/No)]
-9.99                                    [alpha_PowerLaw]
CCM                                      [red_law_option]
 1.458241                                [q_norm = A(l_norm)/A(V)]

## (Re)Sampling Parameters
 3100.00                                 [l_ini (A)]
 5300.00                                 [l_fin (A)]
    1.00                                 [dl    (A)]     (OBS: dl_cushion =    50.00 A)

## Normalization info
 4020.00                                 [l_norm (A) - for base]
 4010.00                                 [llow_norm (A) - window for f_obs]
 4060.00                                 [lupp_norm (A) - window for f_obs]
2.409103E-16                             [fobs_norm (in input units)]

## S/N
 4730.00                                 [llow_SN (A) - window for S/N]
 4780.00                                 [lupp_SN (A) - window for S/N]
  29.439                                 [S/N in S/N window]
  36.757                                 [S/N in norm. window]
  30.784                                 [S/N_err in S/N window]
  38.437                                 [S/N_err in norm. window]
  1.0000                                 [fscale_chi2]

## etc...
    -2007200                             [idum_orig]
  1493                                   [NOl_eff]
  1000                                   [Nl_eff]
   493    NSIGMA                         [Ntot_cliped & clip_method]
   379680                                [Nglobal_steps]
   7                                     [N_chains]
   5                                     [NEX0s_base = N_base in EX0s-fits]
 0   0   1        0   2.0   5.096E+01    [Clip-Bug, RC-Crash & Burn-In warning-flags, n_censored_weights, wei_nsig_threshold & wei_limit]
     9      4.540      4.497      0.044  [idt_all, wdt_TotTime, wdt_UsrTime & wdt_SysTime (sec)]

## Synthesis Results - Best model ##

 1.94785E+00                             [chi2/Nl_eff]
     4.25714                             [adev (%)]

   108.97231                             [sum-of-x (%)]
 3.47599E-16                             [Flux_tot (units of input spectrum!)]
 9.40886E-12                             [Mini_tot (???)]
 4.74330E-12                             [Mcor_tot (???)]

   0.00                                  [v0_min  (km/s)]
 225.42                                  [vd_min  (km/s)]
 0.2090                                  [AV_min  (mag)]
 0.0000                                  [YAV_min (mag)]

# j     x_j(%)      Mini_j(%)     Mcor_j(%)     age_j(yr)     Z_j      (L/M)_j    YAV?  Mstars   component_j        a/Fe...       SSP_chi2r SSP_adev(%)   SSP_AV   SSP_x(%)
  1     92.6961     2.8210E-01    5.5958E-01    1.000000E+06  0.00400  1.114E-02    0   1.0000   age020_m42            0.0000     5.0797E+00     7.1922   1.4425   108.4375
  2      0.0000     0.0000E+00    0.0000E+00    3.160000E+06  0.00400  4.073E-02    0   0.9999   age045_m42            0.0000     1.6240E+01    13.4384   0.5318   119.7174
  3      0.0000     0.0000E+00    0.0000E+00    5.010000E+06  0.00400  2.534E-02    0   0.9488   age055_m42            0.0000     1.1402E+01    11.2995   0.9112   114.8673
  4      0.0000     0.0000E+00    0.0000E+00    1.000000E+07  0.00400  1.271E-02    0   0.8862   age070_m42            0.0000     1.2562E+01    11.7239   0.2800   117.1432
  5      0.0000     0.0000E+00    0.0000E+00    2.512000E+07  0.00400  5.070E-03    0   0.8174   age090_m42            0.0000     1.3806E+01    12.3640   0.1333   118.9774
  6      0.0000     0.0000E+00    0.0000E+00    4.000000E+07  0.00400  3.505E-03    0   0.7851   age104_m42            0.0000     1.6771E+01    13.7865  -0.2077   121.6435
  7      0.0000     0.0000E+00    0.0000E+00    1.015200E+08  0.00400  2.268E-03    0   0.7207   age116_m42            0.0000     3.7553E+01    20.5897  -0.1886   125.0006
  8      0.0000     0.0000E+00    0.0000E+00    2.861200E+08  0.00400  1.079E-03    0   0.6613   age125_m42            0.0000     4.6351E+01    22.9446  -0.6893   127.2216
  9      0.0000     0.0000E+00    0.0000E+00    6.405400E+08  0.00400  5.077E-04    0   0.6197   age132_m42            0.0000     4.9565E+01    23.4867  -1.0000   130.6242
 10      0.0000     0.0000E+00    0.0000E+00    9.047900E+08  0.00400  3.535E-04    0   0.6024   age135_m42            0.0000     4.7892E+01    22.4556  -1.0000   126.4041
 11      0.0000     0.0000E+00    0.0000E+00    1.434000E+09  0.00400  1.910E-04    0   0.5716   age139_m42            0.0000     5.2179E+01    23.2281  -1.0000   115.6873
 12      0.0000     0.0000E+00    0.0000E+00    2.500000E+09  0.00400  9.818E-05    0   0.5463   age150_m42            0.0000     6.0488E+01    25.5244  -1.0000   106.3017
 13      0.0000     0.0000E+00    0.0000E+00    5.000000E+09  0.00400  4.718E-05    0   0.5228   age161_m42            0.0000     6.8639E+01    27.4830  -1.0000   100.3368
 14      0.0000     0.0000E+00    0.0000E+00    1.100000E+10  0.00400  2.205E-05    0   0.4980   age185_m42            0.0000     8.5298E+01    31.2214  -1.0000    92.7175
 15      0.0000     0.0000E+00    0.0000E+00    1.300000E+10  0.00400  1.883E-05    0   0.4927   age193_m42            0.0000     8.7055E+01    31.5649  -1.0000    92.2995
 16      0.0013     2.2831E-06    4.5287E-06    1.000000E+06  0.02000  1.989E-02    0   1.0000   age020_m62            0.0000     5.3799E+00     7.3404   1.4095   109.1680
 17      0.0000     0.0000E+00    0.0000E+00    3.160000E+06  0.02000  3.772E-02    0   0.9858   age045_m62            0.0000     7.6571E+00     9.2145   1.2574   111.6367
 18      0.0000     0.0000E+00    0.0000E+00    5.010000E+06  0.02000  3.227E-02    0   0.9342   age055_m62            0.0000     1.6235E+01    13.5759   0.7709   116.6615
 19      0.0000     0.0000E+00    0.0000E+00    1.000000E+07  0.02000  1.011E-02    0   0.8751   age070_m62            0.0000     7.4724E+00     8.7692   0.4049   115.4701
 20      0.0000     0.0000E+00    0.0000E+00    2.512000E+07  0.02000  4.206E-03    0   0.8099   age090_m62            0.0000     1.0323E+01    10.6757   0.2264   116.2115
 21      0.0000     0.0000E+00    0.0000E+00    4.000000E+07  0.02000  3.373E-03    0   0.7799   age104_m62            0.0000     1.9332E+01    14.8536   0.0378   121.2063
 22      0.0000     0.0000E+00    0.0000E+00    1.015200E+08  0.02000  1.878E-03    0   0.7221   age116_m62            0.0000     3.5904E+01    20.2735  -0.1289   125.4591
 23      0.0000     0.0000E+00    0.0000E+00    2.861200E+08  0.02000  8.869E-04    0   0.6700   age125_m62            0.0000     5.5710E+01    25.0965  -0.6161   130.4492
 24      0.0000     0.0000E+00    0.0000E+00    6.405400E+08  0.02000  3.657E-04    0   0.6322   age132_m62            0.0000     5.8089E+01    24.8269  -1.0000   128.8162
 25      0.0000     0.0000E+00    0.0000E+00    9.047900E+08  0.02000  2.312E-04    0   0.6152   age135_m62            0.0000     5.9015E+01    24.4964  -1.0000   120.9974
 26      0.0000     0.0000E+00    0.0000E+00    1.434000E+09  0.02000  1.168E-04    0   0.5865   age139_m62            0.0000     6.6653E+01    26.7278  -1.0000   107.8688
 27      0.0000     0.0000E+00    0.0000E+00    2.500000E+09  0.02000  5.505E-05    0   0.5610   age150_m62            0.0000     8.4707E+01    30.7980  -1.0000    97.1279
 28      0.0000     0.0000E+00    0.0000E+00    5.000000E+09  0.02000  2.596E-05    0   0.5353   age161_m62            0.0000     1.0740E+02    35.1672  -1.0000    89.1951
 29      0.0004     1.0279E-03    1.0405E-03    1.100000E+10  0.02000  1.169E-05    0   0.5103   age185_m62            0.0000     1.3316E+02    39.3551  -1.0000    81.8987
 30      0.0000     0.0000E+00    0.0000E+00    1.300000E+10  0.02000  9.691E-06    0   0.5047   age193_m62            0.0000     1.3690E+02    39.8942  -1.0000    81.0792
 31      0.0000     0.0000E+00    0.0000E+00    1.000000E+06  0.05000  2.651E-02    0   0.9998   age020_m72            0.0000     5.8165E+00     7.6601   1.3867   109.9447
 32      0.0000     0.0000E+00    0.0000E+00    3.160000E+06  0.05000  4.817E-02    0   0.9577   age045_m72            0.0000     1.1631E+01    11.4890   1.0710   114.5654
 33      0.0000     0.0000E+00    0.0000E+00    5.010000E+06  0.05000  3.101E-02    0   0.9147   age055_m72            0.0000     1.1735E+01    11.4476   0.7952   116.5367
 34      0.0000     0.0000E+00    0.0000E+00    1.000000E+07  0.05000  8.954E-03    0   0.8524   age070_m72            0.0000     1.1172E+01    11.1344   0.9587   115.6088
 35      0.0000     0.0000E+00    0.0000E+00    2.512000E+07  0.05000  4.207E-03    0   0.7902   age090_m72            0.0000     1.8093E+01    14.4477   0.5595   119.5444
 36      0.0000     0.0000E+00    0.0000E+00    4.000000E+07  0.05000  3.198E-03    0   0.7618   age104_m72            0.0000     2.6801E+01    17.5201   0.1693   123.0927
 37      0.0000     0.0000E+00    0.0000E+00    1.015200E+08  0.05000  1.716E-03    0   0.7092   age116_m72            0.0000     4.2009E+01    21.8244  -0.0263   124.9100
 38      0.0000     0.0000E+00    0.0000E+00    2.861200E+08  0.05000  7.047E-04    0   0.6618   age125_m72            0.0000     5.7671E+01    25.5264  -0.8673   131.6707
 39      0.0000     0.0000E+00    0.0000E+00    6.405400E+08  0.05000  2.633E-04    0   0.6253   age132_m72            0.0000     6.2212E+01    25.1160  -1.0000   120.8925
 40      0.0000     0.0000E+00    0.0000E+00    9.047900E+08  0.05000  1.484E-04    0   0.6088   age135_m72            0.0000     7.3127E+01    27.8260  -1.0000   106.3518
 41      0.0000     0.0000E+00    0.0000E+00    1.434000E+09  0.05000  7.827E-05    0   0.5847   age139_m72            0.0000     9.3740E+01    32.3334  -1.0000    94.6759
 42      0.0000     0.0000E+00    0.0000E+00    2.500000E+09  0.05000  3.759E-05    0   0.5583   age150_m72            0.0000     1.1479E+02    36.3663  -1.0000    86.9304
 43      0.0000     0.0000E+00    0.0000E+00    5.000000E+09  0.05000  1.548E-05    0   0.5320   age161_m72            0.0000     1.3922E+02    40.2733  -1.0000    78.2704
 44      3.4293     1.7799E+01    1.7900E+01    1.100000E+10  0.05000  6.532E-06    0   0.5070   age185_m72            0.0000     1.6595E+02    43.9484  -1.0000    69.9111
 45     12.8452     8.1918E+01    8.1539E+01    1.300000E+10  0.05000  5.316E-06    0   0.5018   age193_m72            0.0000     1.7494E+02    45.0655  -1.0000    67.4284


## Synthesis Results - Average & Chains ##

# j      x_j: min, <> & last-chain-values for 1 ...  7 chains
  1     92.6961     83.5878     85.2488     83.7519     84.5230     85.1280     88.4497     85.0324     85.3561
  2      0.0000      0.0111      0.0000      0.0000      0.0000      0.0000      0.0000      0.0000      0.0000
  3      0.0000      0.0266      0.0000      0.0000      0.0000      0.0000      0.0000      0.0000      0.0000
  4      0.0000      0.0106      0.0000      0.0000      0.0000      0.0000      0.0000      0.0000      0.0000
  5      0.0000      0.0118      0.0000      0.0000      0.0000      0.0000      0.0000      0.0000      0.0000
  6      0.0000      0.0075      0.0000      0.0000      0.0000      0.0000      0.0000      0.0000      0.0000
  7      0.0000      0.0021      0.0000      0.0000      0.0000      0.0000      0.0000      0.0000      0.0000
  8      0.0000      0.0014      0.0000      0.0000      0.0000      0.0000      0.0000      0.0000      0.0000
  9      0.0000      0.0034      0.0000      0.0000      0.0000      0.0000      0.0000      0.0000      0.0000
 10      0.0000      0.0020      0.0000      0.0000      0.0000      0.0000      0.0000      0.0000      0.0000
 11      0.0000      0.0033      0.0000      0.0000      0.0000      0.0000      0.0000      0.0000      0.0000
 12      0.0000      0.0088      0.0000      0.0000      0.0000      0.0000      0.0000      0.0000      0.0000
 13      0.0000      0.0144      0.0000      0.0000      0.0000      0.0000      0.0000      0.0000      0.0000
 14      0.0000      0.0188      0.0000      0.0000      0.0000      0.0000      0.0000      0.0000      0.0000
 15      0.0000      0.0220      0.0000      0.0000      0.0000      0.0000      0.0000      0.0000      0.0000
 16      0.0013      7.9344      7.1886      8.3062      6.3271      7.3072      3.2563      7.1395      7.0717
 17      0.0000      0.1017      0.0902      0.0000      0.4971      0.0000      0.0000      0.0000      0.0000
 18      0.0000      0.0200      0.0000      0.0000      0.0000      0.0000      0.0000      0.0000      0.0000
 19      0.0000      0.0217      0.0000      0.0000      0.0000      0.0000      0.2722      0.0000      0.0000
 20      0.0000      0.0123      0.0000      0.0000      0.0000      0.0000      0.0000      0.0000      0.0000
 21      0.0000      0.0055      0.0000      0.0000      0.0000      0.0000      0.0000      0.0000      0.0000
 22      0.0000      0.0020      0.0000      0.0000      0.0000      0.0000      0.0000      0.0000      0.0000
 23      0.0000      0.0019      0.0000      0.0000      0.0000      0.0438      0.0000      0.0000      0.0000
 24      0.0000      0.0021      0.0000      0.0000      0.0000      0.0000      0.0000      0.0000      0.0000
 25      0.0000      0.0072      0.0000      0.0000      0.0000      0.0000      0.0000      0.0000      0.0000
 26      0.0000      0.0060      0.0000      0.0000      0.0000      0.0000      0.0000      0.0000      0.0000
 27      0.0000      0.0178      0.0000      0.0012      0.0000      0.0000      0.0000      0.0000      0.0000
 28      0.0000      0.0893      0.0000      0.0000      0.0000      0.0000      0.0000      0.0000      0.0000
 29      0.0004      0.2754      0.2480      0.0000      0.0000      0.0000      0.0000      0.0146      0.0000
 30      0.0000      0.3746      0.2932      0.1325      0.0000      0.0000      0.5682      0.0000      0.7052
 31      0.0000      0.2014      0.0000      0.0000      0.4795      0.0000      0.0000      0.0000      0.0000
 32      0.0000      0.0353      0.0289      0.0000      0.0000      0.0044      0.0000      0.0000      0.0000
 33      0.0000      0.0206      0.0000      0.0000      0.0000      0.0000      0.0000      0.0000      0.0000
 34      0.0000      0.0221      0.0000      0.0000      0.0000      0.0000      0.0000      0.0050      0.0000
 35      0.0000      0.0089      0.0000      0.0000      0.0000      0.0000      0.0000      0.0045      0.0000
 36      0.0000      0.0037      0.0000      0.0000      0.0000      0.0000      0.0000      0.0000      0.0000
 37      0.0000      0.0016      0.0000      0.0000      0.0000      0.0000      0.0000      0.0000      0.0000
 38      0.0000      0.0017      0.0000      0.0000      0.0000      0.0000      0.0000      0.0000      0.0000
 39      0.0000      0.0021      0.0000      0.0000      0.0000      0.0000      0.0000      0.0000      0.0000
 40      0.0000      0.0097      0.0000      0.0000      0.0000      0.0000      0.0000      0.0000      0.0000
 41      0.0000      0.0090      0.0000      0.0536      0.0405      0.0000      0.0000      0.0000      0.0000
 42      0.0000      0.0353      0.0000      0.0000      0.0000      0.0000      0.0000      0.0000      0.0000
 43      0.0000      0.0528      0.0000      0.0000      0.0000      0.0000      0.0000      0.0000      0.0000
 44      3.4293      5.4249      4.9565      5.5064      5.6956      5.7116      5.0558      5.3527      5.2672
 45     12.8452     10.8144     11.2873     11.2658     11.4385     11.0540     11.5328     11.5724     10.8399

# j      m_j: min, <> & last-chain-values for 1 ...  7 chains
  1  5.5958E-01  5.0456E-01  5.1557E-01  4.9919E-01  4.9589E-01  5.1122E-01  5.2278E-01  5.0335E-01  5.1883E-01
  2  0.0000E+00  1.8383E-05  0.0000E+00  0.0000E+00  0.0000E+00  0.0000E+00  0.0000E+00  0.0000E+00  0.0000E+00
  3  0.0000E+00  6.7031E-05  0.0000E+00  0.0000E+00  0.0000E+00  0.0000E+00  0.0000E+00  0.0000E+00  0.0000E+00
  4  0.0000E+00  4.9530E-05  0.0000E+00  0.0000E+00  0.0000E+00  0.0000E+00  0.0000E+00  0.0000E+00  0.0000E+00
  5  0.0000E+00  1.2823E-04  0.0000E+00  0.0000E+00  0.0000E+00  0.0000E+00  0.0000E+00  0.0000E+00  0.0000E+00
  6  0.0000E+00  1.1351E-04  0.0000E+00  0.0000E+00  0.0000E+00  0.0000E+00  0.0000E+00  0.0000E+00  0.0000E+00
  7  0.0000E+00  4.5177E-05  0.0000E+00  0.0000E+00  0.0000E+00  0.0000E+00  0.0000E+00  0.0000E+00  0.0000E+00
  8  0.0000E+00  5.9579E-05  0.0000E+00  0.0000E+00  0.0000E+00  0.0000E+00  0.0000E+00  0.0000E+00  0.0000E+00
  9  0.0000E+00  2.8084E-04  0.0000E+00  0.0000E+00  0.0000E+00  0.0000E+00  0.0000E+00  0.0000E+00  0.0000E+00
 10  0.0000E+00  2.2518E-04  0.0000E+00  0.0000E+00  0.0000E+00  0.0000E+00  0.0000E+00  0.0000E+00  0.0000E+00
 11  0.0000E+00  6.5734E-04  0.0000E+00  0.0000E+00  0.0000E+00  0.0000E+00  0.0000E+00  0.0000E+00  0.0000E+00
 12  0.0000E+00  3.3112E-03  0.0000E+00  0.0000E+00  0.0000E+00  0.0000E+00  0.0000E+00  0.0000E+00  0.0000E+00
 13  0.0000E+00  1.0734E-02  0.0000E+00  0.0000E+00  0.0000E+00  0.0000E+00  0.0000E+00  0.0000E+00  0.0000E+00
 14  0.0000E+00  2.8494E-02  0.0000E+00  0.0000E+00  0.0000E+00  0.0000E+00  0.0000E+00  0.0000E+00  0.0000E+00
 15  0.0000E+00  3.8727E-02  0.0000E+00  0.0000E+00  0.0000E+00  0.0000E+00  0.0000E+00  0.0000E+00  0.0000E+00
 16  4.5287E-06  2.6825E-02  2.4350E-02  2.7728E-02  2.0790E-02  2.4577E-02  1.0780E-02  2.3670E-02  2.4075E-02
 17  0.0000E+00  1.7871E-04  1.5878E-04  0.0000E+00  8.4916E-04  0.0000E+00  0.0000E+00  0.0000E+00  0.0000E+00
 18  0.0000E+00  3.8944E-05  0.0000E+00  0.0000E+00  0.0000E+00  0.0000E+00  0.0000E+00  0.0000E+00  0.0000E+00
 19  0.0000E+00  1.2644E-04  0.0000E+00  0.0000E+00  0.0000E+00  0.0000E+00  1.5513E-03  0.0000E+00  0.0000E+00
 20  0.0000E+00  1.5947E-04  0.0000E+00  0.0000E+00  0.0000E+00  0.0000E+00  0.0000E+00  0.0000E+00  0.0000E+00
 21  0.0000E+00  8.6023E-05  0.0000E+00  0.0000E+00  0.0000E+00  0.0000E+00  0.0000E+00  0.0000E+00  0.0000E+00
 22  0.0000E+00  5.0428E-05  0.0000E+00  0.0000E+00  0.0000E+00  0.0000E+00  0.0000E+00  0.0000E+00  0.0000E+00
 23  0.0000E+00  9.4626E-05  0.0000E+00  0.0000E+00  0.0000E+00  2.2131E-03  0.0000E+00  0.0000E+00  0.0000E+00
 24  0.0000E+00  2.4953E-04  0.0000E+00  0.0000E+00  0.0000E+00  0.0000E+00  0.0000E+00  0.0000E+00  0.0000E+00
 25  0.0000E+00  1.2950E-03  0.0000E+00  0.0000E+00  0.0000E+00  0.0000E+00  0.0000E+00  0.0000E+00  0.0000E+00
 26  0.0000E+00  2.0236E-03  0.0000E+00  0.0000E+00  0.0000E+00  0.0000E+00  0.0000E+00  0.0000E+00  0.0000E+00
 27  0.0000E+00  1.2175E-02  0.0000E+00  8.0886E-04  0.0000E+00  0.0000E+00  0.0000E+00  0.0000E+00  0.0000E+00
 28  0.0000E+00  1.2382E-01  0.0000E+00  0.0000E+00  0.0000E+00  0.0000E+00  0.0000E+00  0.0000E+00  0.0000E+00
 29  1.0405E-03  8.0834E-01  7.2941E-01  0.0000E+00  0.0000E+00  0.0000E+00  0.0000E+00  4.2016E-02  0.0000E+00
 30  0.0000E+00  1.3119E+00  1.0289E+00  4.5833E-01  0.0000E+00  0.0000E+00  1.9483E+00  0.0000E+00  2.4869E+00
 31  0.0000E+00  5.1086E-04  0.0000E+00  0.0000E+00  1.1818E-03  0.0000E+00  0.0000E+00  0.0000E+00  0.0000E+00
 32  0.0000E+00  4.7257E-05  3.8677E-05  0.0000E+00  0.0000E+00  5.9163E-06  0.0000E+00  0.0000E+00  0.0000E+00
 33  0.0000E+00  4.0817E-05  0.0000E+00  0.0000E+00  0.0000E+00  0.0000E+00  0.0000E+00  0.0000E+00  0.0000E+00
 34  0.0000E+00  1.4135E-04  0.0000E+00  0.0000E+00  0.0000E+00  0.0000E+00  0.0000E+00  3.1468E-05  0.0000E+00
 35  0.0000E+00  1.1268E-04  0.0000E+00  0.0000E+00  0.0000E+00  0.0000E+00  0.0000E+00  5.6062E-05  0.0000E+00
 36  0.0000E+00  5.9910E-05  0.0000E+00  0.0000E+00  0.0000E+00  0.0000E+00  0.0000E+00  0.0000E+00  0.0000E+00
 37  0.0000E+00  4.5641E-05  0.0000E+00  0.0000E+00  0.0000E+00  0.0000E+00  0.0000E+00  0.0000E+00  0.0000E+00
 38  0.0000E+00  1.0502E-04  0.0000E+00  0.0000E+00  0.0000E+00  0.0000E+00  0.0000E+00  0.0000E+00  0.0000E+00
 39  0.0000E+00  3.3142E-04  0.0000E+00  0.0000E+00  0.0000E+00  0.0000E+00  0.0000E+00  0.0000E+00  0.0000E+00
 40  0.0000E+00  2.6868E-03  0.0000E+00  0.0000E+00  0.0000E+00  0.0000E+00  0.0000E+00  0.0000E+00  0.0000E+00
 41  0.0000E+00  4.4964E-03  0.0000E+00  2.6589E-02  1.9781E-02  0.0000E+00  0.0000E+00  0.0000E+00  0.0000E+00
 42  0.0000E+00  3.5211E-02  0.0000E+00  0.0000E+00  0.0000E+00  0.0000E+00  0.0000E+00  0.0000E+00  0.0000E+00
 43  0.0000E+00  1.2209E-01  0.0000E+00  0.0000E+00  0.0000E+00  0.0000E+00  0.0000E+00  0.0000E+00  0.0000E+00
 44  1.7900E+01  2.8314E+01  2.5919E+01  2.8378E+01  2.8893E+01  2.9658E+01  2.5838E+01  2.7397E+01  2.7684E+01
 45  8.1539E+01  6.8645E+01  7.1783E+01  7.0609E+01  7.0568E+01  6.9804E+01  7.1679E+01  7.2034E+01  6.9287E+01

# AV, chi2 & Mass for <> & i_chain = 1 ...  7 solutions
AV       0.2090      0.1646      0.1823      0.1738      0.1584      0.1785      0.1618      0.1699      0.1853
chi2 1.9479E+00  1.9772E+00  1.9668E+00  1.9656E+00  1.9686E+00  1.9654E+00  1.9640E+00  1.9623E+00  1.9653E+00
Mass 4.7433E-12  4.4688E-12  4.5677E-12  4.5822E-12  4.5598E-12  4.5765E-12  4.5468E-12  4.5896E-12  4.5634E-12
   0.00                                  [v0_min (km/s) before EX0s...]
 225.42                                  [vd_min (km/s) before EX0s...]


## Synthetic spectrum (Best Model) ##l_obs f_obs f_syn wei
 2201    [Nl_obs]
 3100.00    1.67625   2.04409    6.109
 3101.00    1.71685   2.03869    6.115
 3102.00    1.87746   2.03436    5.915
 3103.00    1.97016   2.03138    5.832
 3104.00    1.80798   2.02969    6.135
 3105.00    1.69537   2.02895    6.395
 3106.00    1.69376   2.02876    6.452
 3107.00    1.66334   2.02885    6.566
 3108.00    1.71721   2.02903    6.515
 3109.00    1.83915   2.02926    6.354
 3110.00    1.83656   2.02949    6.394
 3111.00    1.76592   2.02972    6.569
 3112.00    1.76410   2.02994    6.620
 3113.00    1.75668   2.03010    6.690
 3114.00    1.74416   2.03009    6.768
 3115.00    1.73253   2.02966    6.827
 3116.00    1.70102   2.02836    6.933
 3117.00    1.69632   2.02558    6.981
 3118.00    1.62600   2.02080   -1.000
 3119.00    1.69307   2.01396    7.081
 3120.00    1.79916   2.00549    6.892
 3121.00    1.75324   1.99703    7.024
 3122.00    1.78377   1.99018    7.000
 3123.00    1.90050   1.98540    6.814
 3124.00    1.95012   1.98262    6.771
 3125.00    1.92682   1.98131    6.845
 3126.00    1.93588   1.98088    6.858
 3127.00    1.93137   1.98086    6.917
 3128.00    1.84232   1.98102    7.109
 3129.00    1.81261   1.98123    7.203
 3130.00    1.86955   1.98145    7.139
 3131.00    1.89651   1.98168    7.150
 3132.00    1.88716   1.98189    7.218
 3133.00    1.89147   1.98207    7.253
 3134.00    1.97919   1.98211    7.155
 3135.00    2.01171   1.98185    7.145
 3136.00    1.93203   1.98094    7.336
 3137.00    1.84040   1.97896    7.552
 3138.00    1.79463   1.97553    7.690
 3139.00    1.77985   1.97061    7.782
 3140.00    1.85478   1.96454    7.679
 3141.00    1.77530   1.95846    7.923
 3142.00    1.73904   1.95354    8.070
 3143.00    1.84983   1.95011    7.883
 3144.00    1.87710   1.94812    7.910
 3145.00    1.84448   1.94721    8.047
 3146.00    1.78705   1.94694    8.229
 3147.00    1.82940   1.94698    8.203
 3148.00    1.87605   1.94714    8.145
 3149.00    1.96462   1.94735    8.029
 3150.00    1.95280   1.94757    8.113
 3151.00    2.00684   1.94779    8.021
 3152.00    1.93098   1.94799    8.200
 3153.00    1.88383   1.94816    8.352
 3154.00    1.91430   1.94819    8.361
 3155.00    1.87049   1.94791    8.498
 3156.00    1.84415   1.94699    8.615
 3157.00    1.75751   1.94501    8.885
 3158.00    1.76611   1.94159    8.917
 3159.00    1.84144   1.93672    8.761
 3160.00    1.82558   1.93074    8.806
 3161.00    1.84071   1.92475    8.806
 3162.00    1.92220   1.91988    8.658
 3163.00    1.85800   1.91646    8.840
 3164.00    1.82114   1.91447    8.963
 3165.00    1.90258   1.91355    8.802
 3166.00    1.91942   1.91326    8.781
 3167.00    1.92635   1.91329    8.793
 3168.00    1.88957   1.91344    8.904
 3169.00    1.83998   1.91364    9.080
 3170.00    1.87847   1.91385    9.027
 3171.00    1.86063   1.91405    9.100
 3172.00    1.83127   1.91424    9.246
 3173.00    1.77683   1.91437    9.389
 3174.00    1.79620   1.91432    9.375
 3175.00    1.82552   1.91382    9.343
 3176.00    1.84601   1.91244    9.287
 3177.00    1.79429   1.90958    9.448
 3178.00    1.78863   1.90475    9.481
 3179.00    1.76895   1.89793    9.567
 3180.00    1.81444   1.88962    9.491
 3181.00    1.76542   1.88131    9.666
 3182.00    1.74373   1.87449    9.771
 3183.00    1.82902   1.86966    9.560
 3184.00    1.87595   1.86679    9.487
 3185.00    1.97561   1.86540    9.278
 3186.00    2.20243   1.86490    8.810
 3187.00    2.64239   1.86483   -1.000
 3188.00    2.93668   1.86495   -1.000
 3189.00    2.91862   1.86513   -1.000
 3190.00    2.59388   1.86532   -1.000
 3191.00    2.10120   1.86552    9.224
 3192.00    1.91607   1.86570    9.701
 3193.00    1.87451   1.86582    9.856
 3194.00    1.87469   1.86578    9.918
 3195.00    1.80230   1.86535   10.181
 3196.00    1.75093   1.86415   10.376
 3197.00    1.69653   1.86167   10.602
 3198.00    1.71652   1.85750   10.617
 3199.00    1.78118   1.85161   10.466
 3200.00    1.77776   1.84447   10.535
 3201.00    1.71418   1.83734   10.766
 3202.00    1.66919   1.83145   10.977
 3203.00    1.60158   1.82727   -1.000
 3204.00    1.62079   1.82478   11.221
 3205.00    1.67916   1.82357   11.064
 3206.00    1.71515   1.82314   10.996
 3207.00    1.70097   1.82309   11.062
 3208.00    1.78932   1.82320   10.796
 3209.00    1.84490   1.82337   10.620
 3210.00    1.88399   1.82355   10.512
 3211.00    1.86928   1.82374   10.545
 3212.00    1.89102   1.82391   10.478
 3213.00    1.93794   1.82404   10.345
 3214.00    1.92494   1.82406   10.391
 3215.00    1.98612   1.82382   10.200
 3216.00    2.02026   1.82304   10.098
 3217.00    1.99005   1.82138   10.147
 3218.00    1.93936   1.81858   10.304
 3219.00    1.92628   1.81462   10.328
 3220.00    1.93743   1.80984   10.317
 3221.00    1.87542   1.80506   10.474
 3222.00    1.87168   1.80110   10.504
 3223.00    1.89501   1.79830   10.445
 3224.00    1.91436   1.79664   10.424
 3225.00    1.87030   1.79585   10.536
 3226.00    1.87176   1.79560   10.600
 3227.00    1.82749   1.79561   10.780
 3228.00    1.82152   1.79573   10.838
 3229.00    1.80348   1.79589   10.950
 3230.00    1.79372   1.79607   11.015
 3231.00    1.84321   1.79624   10.909
 3232.00    1.85503   1.79641   10.935
 3233.00    1.84405   1.79655   10.991
 3234.00    1.83923   1.79661   11.034
 3235.00    1.79729   1.79649   11.207
 3236.00    1.78398   1.79602   11.269
 3237.00    1.83907   1.79498   11.103
 3238.00    1.90672   1.79318   10.913
 3239.00    1.90942   1.79063   10.916
 3240.00    1.91088   1.78755   10.934
 3241.00    1.94307   1.78447   10.824
 3242.00    1.93666   1.78192   10.827
 3243.00    1.89409   1.78012   10.964
 3244.00    1.90333   1.77907   10.965
 3245.00    1.89987   1.77859   10.976
 3246.00    1.91894   1.77847   10.901
 3247.00    1.90812   1.77853   10.933
 3248.00    1.84931   1.77866   11.123
 3249.00    1.84959   1.77881   11.123
 3250.00    1.89836   1.77898   11.004
 3251.00    1.83104   1.77914   11.194
 3252.00    1.84646   1.77929   11.192
 3253.00    1.80536   1.77940   11.333
 3254.00    1.82878   1.77940   11.295
 3255.00    1.86721   1.77914   11.206
 3256.00    1.86418   1.77836   11.247
 3257.00    1.84202   1.77676   11.391
 3258.00    1.82898   1.77408   11.465
 3259.00    1.79209   1.77033   11.634
 3260.00    1.83906   1.76585   11.547
 3261.00    1.83861   1.76137   11.613
 3262.00    1.84772   1.75762   11.642
 3263.00    1.85589   1.75494   11.668
 3264.00    1.82032   1.75333   11.834
 3265.00    1.83295   1.75255   11.831
 3266.00    1.89484   1.75228   11.687
 3267.00    1.91255   1.75227   11.629
 3268.00    1.88645   1.75237   11.675
 3269.00    1.94293   1.75251   11.545
 3270.00    1.92419   1.75266   11.859
 3271.00    1.75841   1.75281   12.566
 3272.00    1.77986   1.75295   12.288
 3273.00    1.85514   1.75304   11.959
 3274.00    1.90421   1.75300   11.835
 3275.00    1.90302   1.75268   11.877
 3276.00    1.86861   1.75178   12.015
 3277.00    1.89498   1.74996   11.965
 3278.00    1.92885   1.74695   11.861
 3279.00    1.88609   1.74277   12.054
 3280.00    1.80571   1.73781   12.373
 3281.00    1.80344   1.73285   12.380
 3282.00    1.80339   1.72867   12.345
 3283.00    1.84719   1.72566   12.245
 3284.00    1.88735   1.72383   12.214
 3285.00    1.85708   1.72293   12.339
 3286.00    1.86881   1.72259   12.387
 3287.00    1.88738   1.72255   12.396
 3288.00    1.89405   1.72263   12.429
 3289.00    1.89909   1.72276   12.437
 3290.00    1.88686   1.72290   12.476
 3291.00    1.85316   1.72303   12.641
 3292.00    1.83684   1.72315   12.744
 3293.00    1.89479   1.72321   12.572
 3294.00    1.91041   1.72311   12.543
 3295.00    1.91297   1.72263   12.566
 3296.00    1.90741   1.72143   12.582
 3297.00    1.91970   1.71906   12.550
 3298.00    1.87888   1.71519   12.689
 3299.00    1.86707   1.70986   12.787
 3300.00    1.87705   1.70358   12.773
 3301.00    1.92490   1.69729   12.642
 3302.00    1.87678   1.69196   12.821
 3303.00    1.86102   1.68809   12.867
 3304.00    1.87726   1.68572   12.843
 3305.00    1.87973   1.68450   12.834
 3306.00    1.87667   1.68402   12.778
 3307.00    1.86737   1.68390   12.826
 3308.00    1.81451   1.68394   13.011
 3309.00    1.86666   1.68401   12.831
 3310.00    1.88604   1.68400   12.797
 3311.00    1.89221   1.68381   12.812
 3312.00    1.86612   1.68322   12.936
 3313.00    1.87082   1.68203   12.921
 3314.00    1.84936   1.68006   13.048
 3315.00    1.85163   1.67733   13.050
 3316.00    1.80566   1.67413   13.222
 3317.00    1.86187   1.67097   13.068
 3318.00    1.89611   1.66836   13.008
 3319.00    1.88751   1.66659   13.036
 3320.00    1.85739   1.66565   13.149
 3321.00    1.89429   1.66520   13.062
 3322.00    1.93983   1.66471   12.930
 3323.00    1.92737   1.66361   12.996
 3324.00    1.90695   1.66146   13.081
 3325.00    1.90121   1.65824   13.138
 3326.00    1.85785   1.65430   13.304
 3327.00    1.85494   1.65020   13.328
 3328.00    1.89092   1.64645   13.223
 3329.00    1.92729   1.64312   -1.000
 3330.00    1.91852   1.63982   13.152
 3331.00    1.90148   1.63590   13.221
 3332.00    1.86387   1.63086   13.353
 3333.00    1.87022   1.62462   13.355
 3334.00    1.90870   1.61761   -1.000
 3335.00    1.90092   1.61054   -1.000
 3336.00    1.90488   1.60414   -1.000
 3337.00    1.88619   1.59900   -1.000
 3338.00    1.88279   1.59560   -1.000
 3339.00    1.89199   1.59441   -1.000
 3340.00    1.87008   1.59589   -1.000
 3341.00    1.86350   1.60027   13.451
 3342.00    1.91162   1.60722   -1.000
 3343.00    1.91403   1.61566   -1.000
 3344.00    1.90678   1.62383   -1.000
 3345.00    1.88060   1.62970   13.536
 3346.00    1.87044   1.63156   13.565
 3347.00    1.87885   1.62850   13.572
 3348.00    1.89389   1.62090   13.610
 3349.00    1.88573   1.61038   -1.000
 3350.00    1.88099   1.59916   -1.000
 3351.00    1.88527   1.58939   -1.000
 3352.00    1.89711   1.58218   -1.000
 3353.00    1.94847   1.57759   -1.000
 3354.00    1.99892   1.57502   -1.000
 3355.00    1.95419   1.57370   -1.000
 3356.00    1.94718   1.57299   -1.000
 3357.00    1.92625   1.57244   -1.000
 3358.00    1.88679   1.57178   -1.000
 3359.00    1.88555   1.57095   -1.000
 3360.00    1.87476   1.56997   -1.000
 3361.00    1.89049   1.56867   -1.000
 3362.00    1.90339   1.56670   -1.000
 3363.00    1.88555   1.56353   -1.000
 3364.00    1.84343   1.55889   -1.000
 3365.00    1.83594   1.55300   -1.000
 3366.00    1.86870   1.54666   -1.000
 3367.00    1.86332   1.54093   -1.000
 3368.00    1.87530   1.53665   -1.000
 3369.00    1.87720   1.53412   -1.000
 3370.00    1.89603   1.53319   -1.000
 3371.00    1.88547   1.53343   -1.000
 3372.00    1.88915   1.53456   -1.000
 3373.00    1.89891   1.53643   -1.000
 3374.00    1.88969   1.53870   -1.000
 3375.00    1.84431   1.54084   -1.000
 3376.00    1.82784   1.54238   -1.000
 3377.00    1.86659   1.54332   -1.000
 3378.00    1.85958   1.54428   -1.000
 3379.00    1.85937   1.54595   -1.000
 3380.00    1.85024   1.54880   -1.000
 3381.00    1.84598   1.55268   -1.000
 3382.00    1.81960   1.55709   -1.000
 3383.00    1.81071   1.56146   14.814
 3384.00    1.84425   1.56527   -1.000
 3385.00    1.83732   1.56824   -1.000
 3386.00    1.81619   1.57004   14.780
 3387.00    1.85685   1.57054   -1.000
 3388.00    1.85741   1.56991   -1.000
 3389.00    1.84290   1.56865   -1.000
 3390.00    1.84996   1.56756   -1.000
 3391.00    1.82562   1.56724   -1.000
 3392.00    1.85000   1.56784   -1.000
 3393.00    1.88787   1.56875   -1.000
 3394.00    1.87794   1.56892   -1.000
 3395.00    1.90178   1.56711   -1.000
 3396.00    1.89249   1.56261   -1.000
 3397.00    1.90299   1.55561   -1.000
 3398.00    1.91029   1.54703   -1.000
 3399.00    1.93856   1.53811   -1.000
 3400.00    1.93276   1.53007   -1.000
 3401.00    1.90177   1.52350   -1.000
 3402.00    1.89575   1.51837   -1.000
 3403.00    1.89241   1.51450   -1.000
 3404.00    1.87554   1.51167   -1.000
 3405.00    1.87855   1.50964   -1.000
 3406.00    1.91087   1.50827   -1.000
 3407.00    1.92494   1.50744   -1.000
 3408.00    1.92020   1.50689   -1.000
 3409.00    1.89953   1.50635   -1.000
 3410.00    1.90287   1.50573   -1.000
 3411.00    1.90018   1.50516   -1.000
 3412.00    1.86483   1.50525   -1.000
 3413.00    1.84325   1.50641   -1.000
 3414.00    1.86313   1.50876   -1.000
 3415.00    1.86116   1.51209   -1.000
 3416.00    1.90575   1.51589   -1.000
 3417.00    1.92066   1.51969   -1.000
 3418.00    1.93534   1.52295   -1.000
 3419.00    1.92418   1.52534   -1.000
 3420.00    1.94752   1.52668   -1.000
 3421.00    1.95455   1.52702   -1.000
 3422.00    1.94781   1.52659   -1.000
 3423.00    1.91000   1.52579   -1.000
 3424.00    1.90374   1.52502   -1.000
 3425.00    1.87961   1.52456   -1.000
 3426.00    1.87415   1.52452   -1.000
 3427.00    1.90242   1.52472   -1.000
 3428.00    1.89452   1.52479   -1.000
 3429.00    1.87933   1.52431   -1.000
 3430.00    1.86447   1.52310   -1.000
 3431.00    1.85150   1.52145   -1.000
 3432.00    1.85557   1.51968   -1.000
 3433.00    1.86800   1.51797   -1.000
 3434.00    1.89630   1.51610   -1.000
 3435.00    1.89378   1.51345   -1.000
 3436.00    1.90036   1.50934   -1.000
 3437.00    1.89024   1.50347   -1.000
 3438.00    1.88924   1.49610   -1.000
 3439.00    1.88236   1.48817   -1.000
 3440.00    1.84737   1.48090   -1.000
 3441.00    1.87771   1.47550   -1.000
 3442.00    1.89615   1.47247   -1.000
 3443.00    1.84966   1.47165   -1.000
 3444.00    1.83131   1.47225   -1.000
 3445.00    1.84802   1.47346   -1.000
 3446.00    1.89471   1.47477   -1.000
 3447.00    1.96239   1.47555   -1.000
 3448.00    1.98603   1.47521   -1.000
 3449.00    1.95902   1.47317   -1.000
 3450.00    1.92175   1.46917   -1.000
 3451.00    1.91564   1.46410   -1.000
 3452.00    1.90702   1.45897   -1.000
 3453.00    1.85177   1.45458   -1.000
 3454.00    1.81236   1.45117   -1.000
 3455.00    1.83268   1.44843   -1.000
 3456.00    1.84841   1.44598   -1.000
 3457.00    1.84747   1.44360   -1.000
 3458.00    1.85286   1.44154   -1.000
 3459.00    1.86448   1.44048   -1.000
 3460.00    1.87642   1.44099   -1.000
 3461.00    1.90509   1.44327   -1.000
 3462.00    1.91838   1.44696   -1.000
 3463.00    1.90465   1.45129   -1.000
 3464.00    1.89626   1.45483   -1.000
 3465.00    1.90538   1.45742   -1.000
 3466.00    1.89811   1.45884   -1.000
 3467.00    1.87213   1.45911   -1.000
 3468.00    1.86176   1.45834   -1.000
 3469.00    1.87055   1.45660   -1.000
 3470.00    1.86126   1.45390   -1.000
 3471.00    1.88264   1.45008   -1.000
 3472.00    1.87562   1.44544   -1.000
 3473.00    1.85741   1.44008   -1.000
 3474.00    1.87793   1.43388   -1.000
 3475.00    1.87905   1.42707   -1.000
 3476.00    1.87615   1.42012   -1.000
 3477.00    1.90034   1.41363   -1.000
 3478.00    1.88229   1.40844   -1.000
 3479.00    1.91460   1.40512   -1.000
 3480.00    1.90528   1.40375   -1.000
 3481.00    1.91619   1.40399   -1.000
 3482.00    1.92858   1.40546   -1.000
 3483.00    1.90923   1.40834   -1.000
 3484.00    1.88983   1.41293   -1.000
 3485.00    1.90513   1.41895   -1.000
 3486.00    1.92412   1.42531   -1.000
 3487.00    1.91274   1.43102   -1.000
 3488.00    1.90924   1.43534   -1.000
 3489.00    1.86827   1.43789   -1.000
 3490.00    1.87128   1.43904   -1.000
 3491.00    1.85893   1.43952   -1.000
 3492.00    1.84854   1.43977   -1.000
 3493.00    1.85334   1.43956   -1.000
 3494.00    1.83097   1.43881   -1.000
 3495.00    1.84711   1.43753   -1.000
 3496.00    1.89408   1.43593   -1.000
 3497.00    1.92357   1.43433   -1.000
 3498.00    1.94286   1.43257   -1.000
 3499.00    1.94181   1.43030   -1.000
 3500.00    1.88196   1.42724    0.000
 3501.00    1.84891   1.42357    0.000
 3502.00    1.84037   1.41975    0.000
 3503.00    1.84584   1.41578    0.000
 3504.00    1.86934   1.41163    0.000
 3505.00    1.82840   1.40756    0.000
 3506.00    1.86883   1.40403    0.000
 3507.00    1.86112   1.40113    0.000
 3508.00    1.84437   1.39868    0.000
 3509.00    1.83682   1.39633    0.000
 3510.00    1.86848   1.39402    0.000
 3511.00    1.91381   1.39185    0.000
 3512.00    1.93273   1.39014    0.000
 3513.00    1.92498   1.38931    0.000
 3514.00    1.88736   1.38964    0.000
 3515.00    1.85454   1.39084    0.000
 3516.00    1.82313   1.39235    0.000
 3517.00    1.82575   1.39330    0.000
 3518.00    1.82610   1.39323    0.000
 3519.00    1.83829   1.39180    0.000
 3520.00    1.84750   1.38916    0.000
 3521.00    1.82963   1.38573    0.000
 3522.00    1.85454   1.38222    0.000
 3523.00    1.88024   1.37933    0.000
 3524.00    1.87513   1.37762    0.000
 3525.00    1.84394   1.37721    0.000
 3526.00    1.86324   1.37846    0.000
 3527.00    1.88326   1.38113    0.000
 3528.00    1.92752   1.38472    0.000
 3529.00    1.97784   1.38848    0.000
 3530.00    1.97061   1.39172    0.000
 3531.00    1.97180   1.39392    0.000
 3532.00    1.94241   1.39483    0.000
 3533.00    1.88299   1.39439    0.000
 3534.00    1.85093   1.39297    0.000
 3535.00    1.87968   1.39116    0.000
 3536.00    1.85478   1.38932    0.000
 3537.00    1.88482   1.38772    0.000
 3538.00    1.88209   1.38681    0.000
 3539.00    1.86790   1.38653    0.000
 3540.00    1.87842   1.38681    0.000
 3541.00    1.89156   1.38732    0.000
 3542.00    1.87114   1.38785    0.000
 3543.00    1.87536   1.38835    0.000
 3544.00    1.89991   1.38878    0.000
 3545.00    1.89173   1.38898    0.000
 3546.00    1.88333   1.38883    0.000
 3547.00    1.87497   1.38845    0.000
 3548.00    1.85153   1.38766    0.000
 3549.00    1.84205   1.38635    0.000
 3550.00    1.89131   1.38457    0.000
 3551.00    1.89473   1.38256    0.000
 3552.00    1.94180   1.38056    0.000
 3553.00    1.96657   1.37854    0.000
 3554.00    1.95847   1.37654    0.000
 3555.00    1.96567   1.37475    0.000
 3556.00    1.94437   1.37333    0.000
 3557.00    1.90233   1.37246    0.000
 3558.00    1.86965   1.37194    0.000
 3559.00    1.85839   1.37156    0.000
 3560.00    1.86182   1.37105    0.000
 3561.00    1.86561   1.37017    0.000
 3562.00    1.87335   1.36851    0.000
 3563.00    1.86822   1.36572    0.000
 3564.00    1.88765   1.36195    0.000
 3565.00    1.87712   1.35761    0.000
 3566.00    1.84756   1.35282    0.000
 3567.00    1.86640   1.34739    0.000
 3568.00    1.90714   1.34147    0.000
 3569.00    1.87501   1.33500    0.000
 3570.00    1.84484   1.32847    0.000
 3571.00    1.86660   1.32247    0.000
 3572.00    1.86260   1.31789    0.000
 3573.00    1.86633   1.31449    0.000
 3574.00    1.84699   1.31186    0.000
 3575.00    1.82557   1.30958    0.000
 3576.00    1.84037   1.30712    0.000
 3577.00    1.86607   1.30403    0.000
 3578.00    1.87769   1.30046    0.000
 3579.00    1.87951   1.29681    0.000
 3580.00    1.89687   1.29370    0.000
 3581.00    1.89042   1.29133    0.000
 3582.00    1.89574   1.28965    0.000
 3583.00    1.86002   1.28861    0.000
 3584.00    1.86682   1.28821    0.000
 3585.00    1.94814   1.28837    0.000
 3586.00    1.98544   1.28915    0.000
 3587.00    2.01364   1.29055    0.000
 3588.00    2.02142   1.29258    0.000
 3589.00    1.93894   1.29526    0.000
 3590.00    1.87462   1.29830    0.000
 3591.00    1.89259   1.30117    0.000
 3592.00    1.88598   1.30364    0.000
 3593.00    1.87431   1.30605    0.000
 3594.00    1.87098   1.30859    0.000
 3595.00    1.88172   1.31137    0.000
 3596.00    1.90141   1.31440    0.000
 3597.00    1.90863   1.31743    0.000
 3598.00    1.88871   1.32005    0.000
 3599.00    1.87879   1.32173    0.000
 3600.00    1.88590   1.32194    0.000
 3601.00    1.90241   1.32023    0.000
 3602.00    1.90923   1.31706    0.000
 3603.00    1.89640   1.31287    0.000
 3604.00    1.92279   1.30858    0.000
 3605.00    1.90117   1.30482    0.000
 3606.00    1.90821   1.30186    0.000
 3607.00    1.91382   1.29978    0.000
 3608.00    1.92774   1.29854    0.000
 3609.00    1.93887   1.29810    0.000
 3610.00    1.91153   1.29818    0.000
 3611.00    1.97457   1.29845    0.000
 3612.00    2.02751   1.29884    0.000
 3613.00    2.08804   1.29899    0.000
 3614.00    2.11782   1.29870    0.000
 3615.00    2.04439   1.29806    0.000
 3616.00    1.95965   1.29722    0.000
 3617.00    1.97622   1.29650    0.000
 3618.00    1.94531   1.29642    0.000
 3619.00    1.90354   1.29767    0.000
 3620.00    1.89320   1.30024    0.000
 3621.00    1.89504   1.30423    0.000
 3622.00    1.91650   1.30910    0.000
 3623.00    1.86657   1.31387    0.000
 3624.00    1.87251   1.31790    0.000
 3625.00    1.90233   1.32081    0.000
 3626.00    1.88116   1.32215    0.000
 3627.00    1.88818   1.32137    0.000
 3628.00    1.88228   1.31844    0.000
 3629.00    1.87980   1.31404    0.000
 3630.00    1.88488   1.30918    0.000
 3631.00    1.90024   1.30481    0.000
 3632.00    1.94065   1.30128    0.000
 3633.00    2.02126   1.29874    0.000
 3634.00    2.06292   1.29707    0.000
 3635.00    2.05239   1.29569    0.000
 3636.00    1.95020   1.29436    0.000
 3637.00    1.89644   1.29371    0.000
 3638.00    1.89210   1.29363    0.000
 3639.00    1.89495   1.29355    0.000
 3640.00    1.85726   1.29294    0.000
 3641.00    1.87229   1.29127    0.000
 3642.00    1.88245   1.28817    0.000
 3643.00    1.85733   1.28368    0.000
 3644.00    1.86626   1.27852    0.000
 3645.00    1.87300   1.27370    0.000
 3646.00    1.87026   1.26999    0.000
 3647.00    1.83528   1.26783    0.000
 3648.00    1.79850   1.26746    0.000
 3649.00    1.76384   1.26865    0.000
 3650.00    1.72135   1.27096    0.000
 3651.00    1.71261   1.27377    0.000
 3652.00    1.68431   1.27675    0.000
 3653.00    1.66928   1.27954    0.000
 3654.00    1.65944   1.28213    0.000
 3655.00    1.63278   1.28453    0.000
 3656.00    1.61245   1.28652    0.000
 3657.00    1.60010   1.28788    0.000
 3658.00    1.59928   1.28840    0.000
 3659.00    1.60630   1.28801    0.000
 3660.00    1.61628   1.28672    0.000
 3661.00    1.60910   1.28481    0.000
 3662.00    1.59090   1.28251    0.000
 3663.00    1.56753   1.28021    0.000
 3664.00    1.56705   1.27788    0.000
 3665.00    1.56911   1.27552    0.000
 3666.00    1.57317   1.27322    0.000
 3667.00    1.58495   1.27100    0.000
 3668.00    1.56889   1.26917    0.000
 3669.00    1.57524   1.26800    0.000
 3670.00    1.56273   1.26739    0.000
 3671.00    1.57144   1.26685    0.000
 3672.00    1.56448   1.26585    0.000
 3673.00    1.51766   1.26410    0.000
 3674.00    1.56344   1.26157    0.000
 3675.00    1.56582   1.25826    0.000
 3676.00    1.51860   1.25449    0.000
 3677.00    1.59387   1.25042    0.000
 3678.00    1.53184   1.24670    0.000
 3679.00    1.50614   1.24374    0.000
 3680.00    1.56717   1.24169    0.000
 3681.00    1.53485   1.24040    0.000
 3682.00    1.50808   1.23938    0.000
 3683.00    1.57252   1.23817    0.000
 3684.00    1.55136   1.23660    0.000
 3685.00    1.48020   1.23499    0.000
 3686.00    1.56591   1.23368    0.000
 3687.00    1.64162   1.23330    0.000
 3688.00    1.50626   1.23407    0.000
 3689.00    1.39054   1.23571    0.000
 3690.00    1.53486   1.23730    0.000
 3691.00    1.65709   1.23826    0.000
 3692.00    1.66901   1.23827    0.000
 3693.00    1.43948   1.23735    0.000
 3694.00    1.28967   1.23584    0.000
 3695.00    1.48208   1.23445    0.000
 3696.00    1.66794   1.23358    0.000
 3697.00    1.79218   1.23292    0.000
 3698.00    1.72821   1.23196    0.000
 3699.00    1.38571   1.22981    0.000
 3700.00    1.20094   1.22563    0.000
 3701.00    1.35500   1.21871    0.000
 3702.00    1.68075   1.20963    0.000
 3703.00    2.00474   1.19958    0.000
 3704.00    2.20912   1.19031    0.000
 3705.00    2.05323   1.18315    0.000
 3706.00    1.63823   1.17872    0.000
 3707.00    1.36857   1.17685    0.000
 3708.00    1.33612   1.17686    0.000
 3709.00    1.48331   1.17832    0.000
 3710.00    1.86138   1.18077    0.000
 3711.00    2.15087   1.18382    0.000
 3712.00    2.33778   1.18707    0.000
 3713.00    2.17117   1.18991    0.000
 3714.00    1.72913   1.19136    0.000
 3715.00    1.63670   1.19041    0.000
 3716.00    1.68169   1.18628    0.000
 3717.00    1.75393   1.17900    0.000
 3718.00    1.91347   1.16976    0.000
 3719.00    2.45400   1.15976    0.000
 3720.00    3.26619   1.15106    0.000
 3721.00    4.12360   1.14573    0.000
 3722.00    5.81418   1.14452    0.000
 3723.00   14.48405   1.14696    0.000
 3724.00   32.84927   1.15166    0.000
 3725.00   50.28195   1.15681    0.000
 3726.00   72.80847   1.16114    0.000
 3727.00   83.44280   1.16373    0.000
 3728.00   67.74242   1.16360    0.000
 3729.00   62.19131   1.16006    0.000
 3730.00   41.17152   1.15306    0.000
 3731.00   10.41061   1.14314    0.000
 3732.00    3.96436   1.13203    0.000
 3733.00    3.60351   1.12198    0.000
 3734.00    3.54937   1.11534    0.000
 3735.00    3.26977   1.11402    0.000
 3736.00    2.41339   1.11833    0.000
 3737.00    1.82735   1.12724    0.000
 3738.00    1.68975   1.13862    0.000
 3739.00    1.59250   1.14989    0.000
 3740.00    1.51264   1.15850   -1.000
 3741.00    1.46800   1.16286   -1.000
 3742.00    1.43430   1.16221   -1.000
 3743.00    1.39272   1.15692   -1.000
 3744.00    1.36124   1.14808   -1.000
 3745.00    1.31928   1.13683    0.000
 3746.00    1.28980   1.12436    0.000
 3747.00    1.54204   1.11211    0.000
 3748.00    2.11174   1.10194    0.000
 3749.00    2.59459   1.09573    0.000
 3750.00    2.90835   1.09480    0.000
 3751.00    2.61196   1.09905    0.000
 3752.00    1.60187   1.10670    0.000
 3753.00    1.20216   1.11567    0.000
 3754.00    1.13770   1.12406    0.000
 3755.00    1.12669   1.13035   26.291
 3756.00    1.13322   1.13370   26.344
 3757.00    1.14287   1.13451   26.198
 3758.00    1.13196   1.13398   26.334
 3759.00    1.11111   1.13332   26.592
 3760.00    1.12063   1.13298   26.513
 3761.00    1.10386   1.13293   26.755
 3762.00    1.12071   1.13271   26.594
 3763.00    1.09879   1.13075   26.901
 3764.00    1.08852   1.12619   27.056
 3765.00    1.07151   1.11900    0.000
 3766.00    1.08704   1.10978    0.000
 3767.00    1.20208   1.09976    0.000
 3768.00    1.78026   1.09045    0.000
 3769.00    2.51504   1.08338    0.000
 3770.00    3.03885   1.08003    0.000
 3771.00    3.11811   1.08173    0.000
 3772.00    2.16272   1.08826    0.000
 3773.00    1.20258   1.09823    0.000
 3774.00    1.02882   1.10986    0.000
 3775.00    1.04978   1.12161    0.000
 3776.00    1.06073   1.13241   -1.000
 3777.00    1.07487   1.14176   27.595
 3778.00    1.07334   1.14932   -1.000
 3779.00    1.06727   1.15520   -1.000
 3780.00    1.07863   1.15949   -1.000
 3781.00    1.07390   1.16218   -1.000
 3782.00    1.07454   1.16324   -1.000
 3783.00    1.09057   1.16235   -1.000
 3784.00    1.09386   1.15952   27.598
 3785.00    1.11601   1.15507   27.336
 3786.00    1.11443   1.14908   27.391
 3787.00    1.08276   1.14187   27.811
 3788.00    1.06965   1.13387   28.026
 3789.00    1.08081   1.12526   27.867
 3790.00    1.08904   1.11593   27.674
 3791.00    1.09578   1.10559   27.607
 3792.00    1.05703   1.09395   28.170
 3793.00    1.06173   1.08083    0.000
 3794.00    1.12664   1.06659    0.000
 3795.00    1.72928   1.05262    0.000
 3796.00    2.80408   1.04057    0.000
 3797.00    3.58358   1.03278    0.000
 3798.00    3.97111   1.03131    0.000
 3799.00    3.02643   1.03691    0.000
 3800.00    1.49376   1.04840    0.000
 3801.00    1.07702   1.06326    0.000
 3802.00    1.04742   1.07870    0.000
 3803.00    1.06037   1.09301   28.725
 3804.00    1.08329   1.10495   28.410
 3805.00    1.08495   1.11406   28.272
 3806.00    1.09576   1.12029   28.131
 3807.00    1.10252   1.12451   28.154
 3808.00    1.08814   1.12736   28.315
 3809.00    1.09860   1.12881   28.262
 3810.00    1.08170   1.12887   28.584
 3811.00    1.09018   1.12735   28.496
 3812.00    1.08500   1.12421   28.543
 3813.00    1.08456   1.11994   28.521
 3814.00    1.09765   1.11497   28.322
 3815.00    1.07629   1.10959    0.000
 3816.00    1.09629   1.10416    0.000
 3817.00    1.25499   1.09904    0.000
 3818.00    1.45303   1.09413    0.000
 3819.00    1.60090   1.08967    0.000
 3820.00    1.64840   1.08617    0.000
 3821.00    1.36829   1.08378    0.000
 3822.00    1.11648   1.08223    0.000
 3823.00    1.07506   1.08061    0.000
 3824.00    1.08550   1.07830   28.604
 3825.00    1.10236   1.07513   28.422
 3826.00    1.09522   1.07064   28.516
 3827.00    1.08303   1.06478   28.705
 3828.00    1.06470   1.05672   28.986
 3829.00    1.06960   1.04605   28.838
 3830.00    1.06437   1.03296    0.000
 3831.00    1.08371   1.01809    0.000
 3832.00    1.50201   1.00260    0.000
 3833.00    2.88046   0.98825    0.000
 3834.00    4.15785   0.97720    0.000
 3835.00    4.99598   0.97146    0.000
 3836.00    4.69284   0.97270    0.000
 3837.00    2.43261   0.98031    0.000
 3838.00    1.23709   0.99259    0.000
 3839.00    1.07894   1.00783    0.000
 3840.00    1.06960   1.02446    0.000
 3841.00    1.06378   1.04095   29.125
 3842.00    1.07172   1.05631   29.048
 3843.00    1.08982   1.06971   28.780
 3844.00    1.09367   1.08035   28.742
 3845.00    1.10317   1.08815   28.634
 3846.00    1.11430   1.09301   28.516
 3847.00    1.10415   1.09598   28.662
 3848.00    1.12720   1.09744   28.411
 3849.00    1.12723   1.09815   28.483
 3850.00    1.11583   1.09804   28.605
 3851.00    1.13905   1.09746   28.347
 3852.00    1.13862   1.09625   28.378
 3853.00    1.14086   1.09398   28.343
 3854.00    1.17836   1.09098   27.960
 3855.00    1.20658   1.08761   27.628
 3856.00    1.21598   1.08441   27.588
 3857.00    1.18719   1.08157   27.915
 3858.00    1.15982   1.07967   28.275
 3859.00    1.20055   1.07906    0.000
 3860.00    1.23802   1.07909    0.000
 3861.00    1.28969   1.07948    0.000
 3862.00    1.33195   1.07939    0.000
 3863.00    1.38794   1.07865    0.000
 3864.00    1.50821   1.07734    0.000
 3865.00    2.45213   1.07580    0.000
 3866.00    6.80601   1.07438    0.000
 3867.00   13.26653   1.07309    0.000
 3868.00   19.45921   1.07187    0.000
 3869.00   21.97953   1.07067    0.000
 3870.00   13.53861   1.06958    0.000
 3871.00    3.77437   1.06898    0.000
 3872.00    1.70212   1.06879    0.000
 3873.00    1.47158   1.06900    0.000
 3874.00    1.36001   1.06912    0.000
 3875.00    1.30967   1.06860    0.000
 3876.00    1.26811   1.06679    0.000
 3877.00    1.23525   1.06399   -1.000
 3878.00    1.20214   1.06064   -1.000
 3879.00    1.19595   1.05643   27.919
 3880.00    1.20308   1.05102   -1.000
 3881.00    1.19573   1.04359   -1.000
 3882.00    1.18765   1.03389    0.000
 3883.00    1.18107   1.02185    0.000
 3884.00    1.20478   1.00782    0.000
 3885.00    1.65817   0.99222    0.000
 3886.00    3.96994   0.97689    0.000
 3887.00    7.36737   0.96446    0.000
 3888.00    9.78593   0.95768    0.000
 3889.00   10.58710   0.95874    0.000
 3890.00    7.25387   0.96795    0.000
 3891.00    2.55671   0.98329    0.000
 3892.00    1.26738   1.00129    0.000
 3893.00    1.14772   1.01958    0.000
 3894.00    1.13023   1.03591    0.000
 3895.00    1.11561   1.04996    0.000
 3896.00    1.10052   1.06119   28.812
 3897.00    1.09950   1.06959   28.787
 3898.00    1.09679   1.07572   28.824
 3899.00    1.10195   1.08004   28.730
 3900.00    1.10360   1.08326   28.658
 3901.00    1.07905   1.08578   28.924
 3902.00    1.06787   1.08780   29.032
 3903.00    1.08727   1.08955   28.724
 3904.00    1.10517   1.09124   28.433
 3905.00    1.07298   1.09322   28.811
 3906.00    1.04496   1.09556   29.149
 3907.00    1.07649   1.09873   28.671
 3908.00    1.08108   1.10235   28.566
 3909.00    1.06905   1.10559   28.687
 3910.00    1.07307   1.10805   28.573
 3911.00    1.06790   1.11008   28.604
 3912.00    1.07008   1.11114   28.524
 3913.00    1.05837   1.11080   28.656
 3914.00    1.04121   1.10911   -1.000
 3915.00    1.06660   1.10615   28.520
 3916.00    1.05867   1.10179   28.611
 3917.00    1.07206   1.09621   28.413
 3918.00    1.08066   1.08966   28.276
 3919.00    1.06461   1.08253   28.497
 3920.00    1.05296   1.07565   28.620
 3921.00    1.05007   1.06935   28.607
 3922.00    1.03157   1.06392   28.809
 3923.00    1.02859   1.05928   28.852
 3924.00    1.04481   1.05556   28.628
 3925.00    1.05923   1.05217   28.454
 3926.00    1.07920   1.04764   28.214
 3927.00    1.09215   1.04127   28.049
 3928.00    1.05988   1.03281   28.497
 3929.00    1.03924   1.02264   28.821
 3930.00    1.02921   1.01143   28.992
 3931.00    1.03271   0.99979   28.973
 3932.00    1.02974   0.98907   29.039
 3933.00    1.01508   0.98189   29.291
 3934.00    0.98005   0.98316   29.873
 3935.00    0.97103   0.99216   30.036
 3936.00    0.98852   1.00408   29.745
 3937.00    1.00110   1.01689   29.556
 3938.00    1.02370   1.02906   29.329
 3939.00    1.03204   1.03919   29.233
 3940.00    1.04425   1.04694   29.111
 3941.00    1.05115   1.05197   29.093
 3942.00    1.04458   1.05424   29.244
 3943.00    1.04307   1.05489   29.284
 3944.00    1.03428   1.05499   29.434
 3945.00    1.02510   1.05511   29.578
 3946.00    1.03550   1.05594   29.497
 3947.00    1.04216   1.05732   29.446
 3948.00    1.03774   1.05899   29.565
 3949.00    1.05520   1.06070   29.377
 3950.00    1.06972   1.06193   29.234
 3951.00    1.06494   1.06220   29.314
 3952.00    1.07187   1.06148   29.264
 3953.00    1.07601   1.05987   29.292
 3954.00    1.07692   1.05722   29.376
 3955.00    1.06498   1.05325   29.601
 3956.00    1.06863   1.04796   29.641
 3957.00    1.08433   1.04158    0.000
 3958.00    1.10270   1.03401    0.000
 3959.00    1.11429   1.02498    0.000
 3960.00    1.13109   1.01375    0.000
 3961.00    1.17239   1.00005    0.000
 3962.00    1.32126   0.98355    0.000
 3963.00    1.56571   0.96413    0.000
 3964.00    2.26320   0.94208    0.000
 3965.00    4.05025   0.91817    0.000
 3966.00    6.25040   0.89364    0.000
 3967.00    9.74797   0.87045    0.000
 3968.00   12.79175   0.85277    0.000
 3969.00   11.68356   0.84535    0.000
 3970.00   10.79950   0.84905    0.000
 3971.00    7.73025   0.86229    0.000
 3972.00    2.74504   0.88279    0.000
 3973.00    1.29444   0.90764    0.000
 3974.00    1.14642   0.93349    0.000
 3975.00    1.11454   0.95828    0.000
 3976.00    1.09102   0.98038    0.000
 3977.00    1.08313   0.99882   30.807
 3978.00    1.07805   1.01366   30.933
 3979.00    1.06960   1.02540   31.104
 3980.00    1.05959   1.03400   31.301
 3981.00    1.04983   1.04015   31.513
 3982.00    1.04409   1.04440   31.621
 3983.00    1.03221   1.04718   31.836
 3984.00    1.03678   1.04939   31.779
 3985.00    1.03488   1.05150   31.846
 3986.00    1.03201   1.05336   31.918
 3987.00    1.02807   1.05551   32.001
 3988.00    1.02179   1.05941   32.134
 3989.00    1.02867   1.06272   32.022
 3990.00    1.03163   1.06565   31.990
 3991.00    1.04038   1.06814   31.855
 3992.00    1.04409   1.06999   31.810
 3993.00    1.02194   1.07106   32.166
 3994.00    1.01185   1.07143   -1.000
 3995.00    1.01889   1.07113   32.148
 3996.00    1.03503   1.07058   31.905
 3997.00    1.03102   1.07030   31.943
 3998.00    1.03070   1.07027   31.943
 3999.00    1.02365   1.07034   32.057
 4000.00    1.01833   1.07006   32.118
 4001.00    1.01062   1.06973   -1.000
 4002.00    0.99870   1.06898   -1.000
 4003.00    1.00741   1.06787    0.000
 4004.00    1.00407   1.06642    0.000
 4005.00    1.00129   1.06547    0.000
 4006.00    1.01810   1.06546    0.000
 4007.00    1.04576   1.06674    0.000
 4008.00    1.09047   1.06900    0.000
 4009.00    1.12444   1.07157    0.000
 4010.00    1.07912   1.07431    0.000
 4011.00    1.02728   1.07731    0.000
 4012.00    0.99680   1.08005    0.000
 4013.00    0.99585   1.08230    0.000
 4014.00    1.00174   1.08404    0.000
 4015.00    0.99573   1.08504   -1.000
 4016.00    1.00402   1.08559   -1.000
 4017.00    1.01152   1.08564   -1.000
 4018.00    1.00035   1.08492   -1.000
 4019.00    1.00730   1.08319   -1.000
 4020.00    1.00075   1.08025    0.000
 4021.00    0.99377   1.07630    0.000
 4022.00    1.00685   1.07196    0.000
 4023.00    1.18780   1.06722    0.000
 4024.00    1.59064   1.06248    0.000
 4025.00    1.91128   1.05865    0.000
 4026.00    2.14837   1.05653    0.000
 4027.00    1.89315   1.05608    0.000
 4028.00    1.24116   1.05614    0.000
 4029.00    1.01582   1.05559    0.000
 4030.00    1.00086   1.05447    0.000
 4031.00    1.00009   1.05351    0.000
 4032.00    0.99930   1.05360   31.915
 4033.00    1.01410   1.05509   31.687
 4034.00    1.01652   1.05810   31.661
 4035.00    1.00000   1.06269   31.905
 4036.00    1.00055   1.06796   -1.000
 4037.00    1.00750   1.07277   -1.000
 4038.00    0.99530   1.07599   -1.000
 4039.00    0.98803   1.07685   -1.000
 4040.00    0.96965   1.07541   -1.000
 4041.00    0.96644   1.07230   -1.000
 4042.00    0.97221   1.06760   -1.000
 4043.00    0.97553   1.06214   -1.000
 4044.00    0.96783   1.05701   -1.000
 4045.00    0.96911   1.05358   -1.000
 4046.00    0.98172   1.05323   -1.000
 4047.00    0.98591   1.05582   -1.000
 4048.00    0.99108   1.06031   -1.000
 4049.00    0.98071   1.06539   -1.000
 4050.00    0.97869   1.06990   -1.000
 4051.00    0.96531   1.07334   -1.000
 4052.00    0.96715   1.07517   -1.000
 4053.00    0.98956   1.07509   -1.000
 4054.00    0.99833   1.07369   -1.000
 4055.00    0.98951   1.07132   -1.000
 4056.00    0.97744   1.06822   -1.000
 4057.00    0.98882   1.06465   -1.000
 4058.00    1.01172   1.06091   32.273
 4059.00    1.01822   1.05655   32.194
 4060.00    1.01487   1.05134   32.314
 4061.00    1.00387   1.04516    0.000
 4062.00    1.01530   1.03836    0.000
 4063.00    1.02257   1.03199    0.000
 4064.00    1.01322   1.02620    0.000
 4065.00    1.09599   1.02129    0.000
 4066.00    1.42948   1.01988    0.000
 4067.00    1.83756   1.02006    0.000
 4068.00    2.16208   1.02031    0.000
 4069.00    2.15617   1.02049    0.000
 4070.00    1.57014   1.02024    0.000
 4071.00    1.13033   1.01980    0.000
 4072.00    1.05407   1.01945    0.000
 4073.00    1.10045   1.01916    0.000
 4074.00    1.21153   1.01921    0.000
 4075.00    1.32780   1.01942    0.000
 4076.00    1.45167   1.02004    0.000
 4077.00    1.39111   1.02185    0.000
 4078.00    1.15380   1.02501    0.000
 4079.00    1.04478   1.02915    0.000
 4080.00    1.01185   1.03342    0.000
 4081.00    1.00867   1.03722    0.000
 4082.00    1.01844   1.04004    0.000
 4083.00    1.00927   1.04214   33.358
 4084.00    1.00600   1.04362   33.435
 4085.00    1.02128   1.04499   33.232
 4086.00    1.01696   1.04622   33.332
 4087.00    1.01220   1.04709   33.446
 4088.00    1.02364   1.04693   33.284
 4089.00    1.04212   1.04512   33.030
 4090.00    1.03568   1.04104   33.157
 4091.00    1.03451   1.03479   33.196
 4092.00    1.05086   1.02628   32.963
 4093.00    1.05992   1.01469   32.859
 4094.00    1.08156   1.00001   32.552
 4095.00    1.10761   0.98234   32.184
 4096.00    1.13979   0.96263   -1.000
 4097.00    1.26030   0.94258   -1.000
 4098.00    2.35505   0.92343   -1.000
 4099.00    7.23282   0.90664    0.000
 4100.00   12.81337   0.89412    0.000
 4101.00   16.56688   0.88778    0.000
 4102.00   16.37869   0.88911    0.000
 4103.00    8.65835   0.89849    0.000
 4104.00    2.44065   0.91362    0.000
 4105.00    1.26596   0.93111    0.000
 4106.00    1.14487   0.94886    0.000
 4107.00    1.09123   0.96524   32.827
 4108.00    1.06643   0.97938   33.224
 4109.00    1.05136   0.99060   33.483
 4110.00    1.04410   0.99912   33.630
 4111.00    1.03049   1.00575   33.880
 4112.00    1.01565   1.01079   34.149
 4113.00    1.01210   1.01462   34.235
 4114.00    0.99767   1.01762   34.486
 4115.00    0.99019   1.01965   34.613
 4116.00    0.99031   1.02050    0.000
 4117.00    0.99276   1.02030    0.000
 4118.00    1.02515   1.01957    0.000
 4119.00    1.07532   1.01917    0.000
 4120.00    1.10397   1.01934    0.000
 4121.00    1.10713   1.01989    0.000
 4122.00    1.04471   1.02074    0.000
 4123.00    0.99053   1.02172    0.000
 4124.00    0.98091   1.02258    0.000
 4125.00    0.97073   1.02290    0.000
 4126.00    0.96623   1.02198   -1.000
 4127.00    0.96516   1.01977   -1.000
 4128.00    0.96857   1.01667   35.084
 4129.00    0.95190   1.01361   -1.000
 4130.00    0.95535   1.01076   -1.000
 4131.00    0.96990   1.00836   35.066
 4132.00    0.96448   1.00675   35.165
 4133.00    0.96608   1.00665   35.134
 4134.00    0.95810   1.00830   35.290
 4135.00    0.94657   1.01099   -1.000
 4136.00    0.96146   1.01355   -1.000
 4137.00    0.97822   1.01516   34.973
 4138.00    0.95956   1.01531   -1.000
 4139.00    0.95332   1.01394    0.000
 4140.00    0.96473   1.01113    0.000
 4141.00    1.00477   1.00726    0.000
 4142.00    1.07467   1.00269    0.000
 4143.00    1.11463   0.99877    0.000
 4144.00    1.09919   0.99656    0.000
 4145.00    1.02844   0.99647    0.000
 4146.00    0.96228   0.99782    0.000
 4147.00    0.94712   0.99932    0.000
 4148.00    0.94573   1.00084   -1.000
 4149.00    0.95413   1.00227   35.526
 4150.00    0.93666   1.00341   -1.000
 4151.00    0.94424   1.00418   -1.000
 4152.00    0.96824   1.00444   35.293
 4153.00    0.97417   1.00466   35.169
 4154.00    0.98160   1.00530   35.044
 4155.00    0.97106   1.00640   35.241
 4156.00    0.95348   1.00817   35.565
 4157.00    0.94158   1.01058   -1.000
 4158.00    0.96404   1.01343   35.383
 4159.00    0.96363   1.01625   -1.000
 4160.00    0.94634   1.01832   -1.000
 4161.00    0.94624   1.01961   -1.000
 4162.00    0.94191   1.02001   -1.000
 4163.00    0.93423   1.01906   -1.000
 4164.00    0.94697   1.01678   -1.000
 4165.00    0.95129   1.01355   -1.000
 4166.00    0.94459   1.00955   -1.000
 4167.00    0.95257   1.00519   35.567
 4168.00    0.96469   1.00094   35.319
 4169.00    0.96592   0.99712   35.296
 4170.00    0.95555   0.99337   35.493
 4171.00    0.94815   0.98937   35.614
 4172.00    0.94684   0.98588   35.643
 4173.00    0.92956   0.98340   35.961
 4174.00    0.92987   0.98216   35.928
 4175.00    0.94372   0.98152   35.651
 4176.00    0.95451   0.98143   35.451
 4177.00    0.94866   0.98204   35.552
 4178.00    0.93672   0.98329   35.750
 4179.00    0.93206   0.98474   -1.000
 4180.00    0.92923   0.98583   -1.000
 4181.00    0.93628   0.98658   35.741
 4182.00    0.93216   0.98701   -1.000
 4183.00    0.94041   0.98737   35.631
 4184.00    0.92902   0.98753   -1.000
 4185.00    0.91624   0.98699   -1.000
 4186.00    0.90675   0.98558   -1.000
 4187.00    0.92433   0.98380   -1.000
 4188.00    0.93513   0.98217   35.636
 4189.00    0.94852   0.98039   35.381
 4190.00    0.93700   0.97794   35.572
 4191.00    0.92275   0.97455   -1.000
 4192.00    0.91974   0.97048   -1.000
 4193.00    0.92911   0.96563   35.704
 4194.00    0.91917   0.95931   35.879
 4195.00    0.91714   0.95137   35.922
 4196.00    0.91715   0.94307   35.908
 4197.00    0.91063   0.93547   36.026
 4198.00    0.89910   0.92930   36.243
 4199.00    0.87779   0.92521   36.676
 4200.00    0.86641   0.92426   36.859
 4201.00    0.87960   0.92685   36.586
 4202.00    0.90219   0.93232   36.129
 4203.00    0.90846   0.93977   35.976
 4204.00    0.91197   0.94793   35.903
 4205.00    0.92127   0.95588   35.713
 4206.00    0.91592   0.96262   -1.000
 4207.00    0.92549   0.96770   35.609
 4208.00    0.91674   0.97076   -1.000
 4209.00    0.92013   0.97170   -1.000
 4210.00    0.92555   0.97087   35.554
 4211.00    0.93334   0.96912   35.405
 4212.00    0.93017   0.96700   35.452
 4213.00    0.92347   0.96501   35.576
 4214.00    0.92334   0.96330   35.562
 4215.00    0.92739   0.96243   35.462
 4216.00    0.92044   0.96244   35.565
 4217.00    0.90459   0.96319   -1.000
 4218.00    0.91456   0.96342   -1.000
 4219.00    0.91476   0.96187   -1.000
 4220.00    0.91310   0.95810   -1.000
 4221.00    0.91025   0.95204   35.748
 4222.00    0.91246   0.94384   35.691
 4223.00    0.90915   0.93451   35.760
 4224.00    0.90705   0.92513   35.796
 4225.00    0.90946   0.91771   35.732
 4226.00    0.90796   0.91286   35.771
 4227.00    0.91061   0.91178   35.714
 4228.00    0.91422   0.91416   35.647
 4229.00    0.91452   0.91913   35.639
 4230.00    0.91578   0.92494   35.620
 4231.00    0.91794   0.93055   35.585
 4232.00    0.90908   0.93535   35.771
 4233.00    0.90237   0.93921   35.905
 4234.00    0.90786   0.94217   35.797
 4235.00    0.91385   0.94460   35.682
 4236.00    0.91127   0.94707   35.746
 4237.00    0.90445   0.95024   35.896
 4238.00    0.91115   0.95414   35.781
 4239.00    0.90469   0.95857   35.911
 4240.00    0.90681   0.96327   -1.000
 4241.00    0.92225   0.96803   35.584
 4242.00    0.95108   0.97220   35.080
 4243.00    0.94618   0.97520   35.209
 4244.00    0.94549   0.97624   35.217
 4245.00    0.92976   0.97532   -1.000
 4246.00    0.91326   0.97247   -1.000
 4247.00    0.91607   0.96801   -1.000
 4248.00    0.91176   0.96278   35.953
 4249.00    0.90297   0.95747   36.157
 4250.00    0.91154   0.95292   36.008
 4251.00    0.91421   0.94956   35.989
 4252.00    0.91351   0.94745   36.028
 4253.00    0.91368   0.94613   36.067
 4254.00    0.90741   0.94492   36.201
 4255.00    0.91691   0.94460   36.040
 4256.00    0.90616   0.94502   36.278
 4257.00    0.91230   0.94576   36.169
 4258.00    0.91108   0.94625   36.210
 4259.00    0.90705   0.94707   36.323
 4260.00    0.91624   0.94908   36.164
 4261.00    0.91641   0.95222   36.181
 4262.00    0.90993   0.95594   36.334
 4263.00    0.91003   0.95918   -1.000
 4264.00    0.91465   0.96112   -1.000
 4265.00    0.93528   0.96104   35.902
 4266.00    0.95778   0.95865   35.495
 4267.00    0.95112   0.95406   35.637
 4268.00    0.92669   0.94761   36.132
 4269.00    0.90724   0.94008   36.547
 4270.00    0.90095   0.93279   36.687
 4271.00    0.91615   0.92694   36.407
 4272.00    0.91360   0.92370   36.491
 4273.00    0.90903   0.92315   36.575
 4274.00    0.92950   0.92501   36.185
 4275.00    0.94026   0.92879   36.014
 4276.00    0.94439   0.93415   35.945
 4277.00    0.95907   0.93996   35.694
 4278.00    0.93984   0.94481   36.084
 4279.00    0.90901   0.94808   36.692
 4280.00    0.91248   0.94998   36.640
 4281.00    0.90320   0.95087   36.866
 4282.00    0.89153   0.95061   -1.000
 4283.00    0.89983   0.94902   -1.000
 4284.00    0.92476   0.94633   36.460
 4285.00    0.95675   0.94291   35.839
 4286.00    0.96671   0.93890   35.675
 4287.00    0.98020   0.93490   35.453
 4288.00    0.97052   0.93074   35.646
 4289.00    0.92420   0.92674   36.525
 4290.00    0.91913   0.92315   36.637
 4291.00    0.91099   0.92087   36.804
 4292.00    0.90009   0.91918   37.048
 4293.00    0.90742   0.91717   36.893
 4294.00    0.91804   0.91422   36.675
 4295.00    0.91703   0.91056   36.694
 4296.00    0.91112   0.90629   36.797
 4297.00    0.90988   0.90113   36.849
 4298.00    0.89801   0.89533   37.093
 4299.00    0.89729   0.88976   37.107
 4300.00    0.90058   0.88503   37.018
 4301.00    0.90245   0.88141   36.965
 4302.00    0.91052   0.87841   36.794
 4303.00    0.91235   0.87581   36.749
 4304.00    0.91315   0.87391   36.720
 4305.00    0.90404   0.87267   36.887
 4306.00    0.90735   0.87195   36.822
 4307.00    0.90902   0.87195   36.790
 4308.00    0.91219   0.87373   36.694
 4309.00    0.91315   0.87810   36.684
 4310.00    0.89825   0.88495   36.973
 4311.00    0.91732   0.89398   36.576
 4312.00    0.92452   0.90500   36.413
 4313.00    0.91140   0.91720   36.669
 4314.00    0.92420   0.92953   36.396
 4315.00    0.93164   0.94100   36.267
 4316.00    0.92346   0.95026   36.399
 4317.00    0.92746   0.95643   36.303
 4318.00    0.93392   0.95854   36.161
 4319.00    0.95019   0.95698   35.849
 4320.00    0.96435   0.95229   35.555
 4321.00    0.96857   0.94532   35.459
 4322.00    0.96381   0.93724   35.528
 4323.00    0.97727   0.92983   35.269
 4324.00    1.00366   0.92397   34.769
 4325.00    0.99241   0.92111   34.941
 4326.00    0.99654   0.92163   34.858
 4327.00    1.01103   0.92524   34.594
 4328.00    1.01885   0.93005   34.436
 4329.00    1.03661   0.93467   34.126
 4330.00    1.05197   0.93759   33.855
 4331.00    1.07302   0.93765   -1.000
 4332.00    1.09614   0.93408   -1.000
 4333.00    1.13926   0.92576   -1.000
 4334.00    1.19674   0.91283   -1.000
 4335.00    1.30301   0.89609   -1.000
 4336.00    1.87373   0.87712   -1.000
 4337.00    6.30884   0.85803   -1.000
 4338.00   17.90459   0.84161   -1.000
 4339.00   28.17157   0.83003   -1.000
 4340.00   34.07690   0.82531    0.000
 4341.00   28.47228   0.82829    0.000
 4342.00   10.30900   0.83814    0.000
 4343.00    2.31372   0.85221    0.000
 4344.00    1.41623   0.86844    0.000
 4345.00    1.29288   0.88436    0.000
 4346.00    1.21761   0.89850    0.000
 4347.00    1.16386   0.90950    0.000
 4348.00    1.11561   0.91728    0.000
 4349.00    1.08108   0.92161    0.000
 4350.00    1.06867   0.92330    0.000
 4351.00    1.04309   0.92427    0.000
 4352.00    1.01923   0.92517    0.000
 4353.00    1.01289   0.92665    0.000
 4354.00    1.00660   0.92892    0.000
 4355.00    0.98655   0.93204    0.000
 4356.00    0.98952   0.93557    0.000
 4357.00    0.99257   0.93936    0.000
 4358.00    1.02938   0.94296    0.000
 4359.00    1.11834   0.94627    0.000
 4360.00    1.61202   0.94938    0.000
 4361.00    2.66901   0.95203    0.000
 4362.00    3.80158   0.95363    0.000
 4363.00    4.47947   0.95431    0.000
 4364.00    3.53209   0.95416    0.000
 4365.00    1.69680   0.95290    0.000
 4366.00    1.08056   0.95001    0.000
 4367.00    1.00544   0.94559   34.381
 4368.00    0.98969   0.94044   34.665
 4369.00    0.97375   0.93505   34.947
 4370.00    0.93589   0.92915   35.656
 4371.00    0.92719   0.92294   35.824
 4372.00    0.91378   0.91731   36.095
 4373.00    0.90179   0.91245   36.335
 4374.00    0.90508   0.90816   36.265
 4375.00    0.90240   0.90421   36.324
 4376.00    0.90160   0.90079   36.360
 4377.00    0.90368   0.89710   36.316
 4378.00    0.90548   0.89239   36.293
 4379.00    0.89535   0.88624   36.514
 4380.00    0.88278   0.87924   36.771
 4381.00    0.89294   0.87223   36.577
 4382.00    0.88251   0.86546    0.000
 4383.00    0.87561   0.85992    0.000
 4384.00    0.87972   0.85679    0.000
 4385.00    0.96682   0.85695    0.000
 4386.00    1.09213   0.85930    0.000
 4387.00    1.18652   0.86283    0.000
 4388.00    1.20113   0.86724    0.000
 4389.00    1.07143   0.87262    0.000
 4390.00    0.91653   0.87804    0.000
 4391.00    0.88849   0.88297    0.000
 4392.00    0.87685   0.88785    0.000
 4393.00    0.87197   0.89265   37.116
 4394.00    0.85818   0.89667   37.411
 4395.00    0.86551   0.89972   37.263
 4396.00    0.86393   0.90201   37.309
 4397.00    0.85918   0.90300   37.420
 4398.00    0.86896   0.90172   37.226
 4399.00    0.86233   0.89834   37.372
 4400.00    0.85814   0.89357   37.478
 4401.00    0.87718   0.88816   37.080
 4402.00    0.87404   0.88249   37.155
 4403.00    0.87599   0.87738   37.128
 4404.00    0.87626   0.87340   37.135
 4405.00    0.86846   0.87216   37.298
 4406.00    0.87117   0.87371   37.256
 4407.00    0.87538   0.87737   37.179
 4408.00    0.87618   0.88183   37.151
 4409.00    0.87717   0.88707   37.123
 4410.00    0.88372   0.89203   36.999
 4411.00    0.87399   0.89574   37.248
 4412.00    0.88667   0.89758   36.933
 4413.00    0.90988   0.89841   36.434
 4414.00    0.92280   0.89824   36.169
 4415.00    0.91981   0.89778   36.228
 4416.00    0.90603   0.89791   36.494
 4417.00    0.88533   0.89889   36.896
 4418.00    0.85688   0.89964   37.498
 4419.00    0.85008   0.89992   -1.000
 4420.00    0.84863   0.89982   -1.000
 4421.00    0.84791   0.89880   -1.000
 4422.00    0.85178   0.89675   37.569
 4423.00    0.83539   0.89436   -1.000
 4424.00    0.82442   0.89219   -1.000
 4425.00    0.84363   0.89010   37.756
 4426.00    0.83354   0.88822   -1.000
 4427.00    0.84022   0.88706   37.819
 4428.00    0.84224   0.88647   37.779
 4429.00    0.83769   0.88593   37.908
 4430.00    0.84192   0.88524   37.828
 4431.00    0.84541   0.88480   37.751
 4432.00    0.82898   0.88495   -1.000
 4433.00    0.82655   0.88538   -1.000
 4434.00    0.83328   0.88631   38.053
 4435.00    0.85216   0.88792   37.644
 4436.00    0.87840   0.89055   37.094
 4437.00    0.88900   0.89365   36.887
 4438.00    0.88764   0.89700   36.922
 4439.00    0.86603   0.89981   37.390
 4440.00    0.86116   0.90231   37.491
 4441.00    0.85254   0.90475   -1.000
 4442.00    0.85633   0.90740   37.599
 4443.00    0.85585   0.91012   -1.000
 4444.00    0.85356   0.91310   -1.000
 4445.00    0.85029   0.91631   -1.000
 4446.00    0.85793   0.91906   -1.000
 4447.00    0.87150   0.92071   -1.000
 4448.00    0.86175   0.92109   -1.000
 4449.00    0.86057   0.92006   -1.000
 4450.00    0.86991   0.91724   -1.000
 4451.00    0.87445   0.91255   37.185
 4452.00    0.87127   0.90685   37.247
 4453.00    0.86393   0.90056   37.415
 4454.00    0.86705   0.89408   37.346
 4455.00    0.85937   0.88814   37.527
 4456.00    0.86755   0.88377   37.340
 4457.00    0.87724   0.88103   37.145
 4458.00    0.87126   0.87959   37.265
 4459.00    0.87099   0.87978   37.287
 4460.00    0.86978   0.88126   37.318
 4461.00    0.84906   0.88368   37.787
 4462.00    0.86862   0.88655   37.377
 4463.00    0.88354   0.88965   37.050
 4464.00    0.88097   0.89234   37.093
 4465.00    0.87699   0.89425    0.000
 4466.00    0.87121   0.89530    0.000
 4467.00    0.92965   0.89608    0.000
 4468.00    1.35886   0.89694    0.000
 4469.00    2.43409   0.89770    0.000
 4470.00    3.41581   0.89888    0.000
 4471.00    3.95845   0.90127    0.000
 4472.00    3.41024   0.90451    0.000
 4473.00    1.68381   0.90779    0.000
 4474.00    0.95942   0.91077    0.000
 4475.00    0.89509   0.91301    0.000
 4476.00    0.87250   0.91383    0.000
 4477.00    0.86431   0.91368    0.000
 4478.00    0.86817   0.91269   37.369
 4479.00    0.87789   0.91084   37.159
 4480.00    0.87336   0.90896   37.249
 4481.00    0.87803   0.90830   37.132
 4482.00    0.87290   0.90898   37.251
 4483.00    0.86957   0.91016   37.328
 4484.00    0.86597   0.91196   37.385
 4485.00    0.86486   0.91369   -1.000
 4486.00    0.86145   0.91476   -1.000
 4487.00    0.83694   0.91463   -1.000
 4488.00    0.84107   0.91365   -1.000
 4489.00    0.85545   0.91172   -1.000
 4490.00    0.86558   0.90940   37.426
 4491.00    0.86728   0.90729   37.380
 4492.00    0.85611   0.90548   37.622
 4493.00    0.84639   0.90393   -1.000
 4494.00    0.85126   0.90282   37.740
 4495.00    0.84888   0.90273   -1.000
 4496.00    0.84705   0.90357   -1.000
 4497.00    0.84279   0.90518   -1.000
 4498.00    0.84050   0.90737   -1.000
 4499.00    0.84488   0.91040   -1.000
 4500.00    0.84246   0.91392   -1.000
 4501.00    0.84157   0.91796   -1.000
 4502.00    0.84604   0.92215   -1.000
 4503.00    0.83936   0.92665   -1.000
 4504.00    0.84477   0.93037   -1.000
 4505.00    0.83600   0.93344   -1.000
 4506.00    0.85081   0.93520   -1.000
 4507.00    0.85634   0.93580   -1.000
 4508.00    0.85182   0.93535   -1.000
 4509.00    0.85114   0.93377   -1.000
 4510.00    0.82939   0.93136   -1.000
 4511.00    0.84174   0.92876   -1.000
 4512.00    0.83990   0.92592   -1.000
 4513.00    0.82879   0.92301   -1.000
 4514.00    0.83768   0.92052   -1.000
 4515.00    0.83197   0.91884   -1.000
 4516.00    0.83912   0.91779   -1.000
 4517.00    0.84266   0.91698   -1.000
 4518.00    0.84520   0.91622   -1.000
 4519.00    0.82911   0.91542   -1.000
 4520.00    0.83045   0.91426   -1.000
 4521.00    0.83066   0.91198   -1.000
 4522.00    0.83261   0.90826   -1.000
 4523.00    0.81727   0.90302   -1.000
 4524.00    0.82777   0.89667   -1.000
 4525.00    0.82498   0.88975   -1.000
 4526.00    0.81349   0.88251   -1.000
 4527.00    0.81540   0.87565   -1.000
 4528.00    0.83436   0.86993   38.426
 4529.00    0.82936   0.86551   38.550
 4530.00    0.83123   0.86281   38.515
 4531.00    0.82347   0.86155   38.704
 4532.00    0.82189   0.86145   38.757
 4533.00    0.82261   0.86235   38.757
 4534.00    0.82350   0.86395   38.747
 4535.00    0.82036   0.86570   38.831
 4536.00    0.81101   0.86755   -1.000
 4537.00    0.80072   0.86954   -1.000
 4538.00    0.80163   0.87115   -1.000
 4539.00    0.79986   0.87201   -1.000
 4540.00    0.80064   0.87210   -1.000
 4541.00    0.77346   0.87210   -1.000
 4542.00    0.77346   0.87252   -1.000
 4543.00    0.80018   0.87322   -1.000
 4544.00    0.81133   0.87443   -1.000
 4545.00    0.80252   0.87591   -1.000
 4546.00    0.81003   0.87760   -1.000
 4547.00    0.81492   0.87967   -1.000
 4548.00    0.81825   0.88166   -1.000
 4549.00    0.83286   0.88309   -1.000
 4550.00    0.82311   0.88423   -1.000
 4551.00    0.81645   0.88558   -1.000
 4552.00    0.82141   0.88684   -1.000
 4553.00    0.81981   0.88829   -1.000
 4554.00    0.82289   0.89027   -1.000
 4555.00    0.82217   0.89285   -1.000
 4556.00    0.83893   0.89613   -1.000
 4557.00    0.83000   0.90002   -1.000
 4558.00    0.82194   0.90396   -1.000
 4559.00    0.84181   0.90678   -1.000
 4560.00    0.88149   0.90909   37.517
 4561.00    0.91532   0.91033   36.823
 4562.00    0.92411   0.91054   36.615
 4563.00    0.91032   0.90979   36.904
 4564.00    0.84873   0.90892   -1.000
 4565.00    0.82662   0.90812   -1.000
 4566.00    0.84264   0.90767   -1.000
 4567.00    0.82309   0.90731   -1.000
 4568.00    0.84900   0.90753   -1.000
 4569.00    0.88087   0.90759   37.456
 4570.00    0.91486   0.90759   36.743
 4571.00    0.92910   0.90724   36.469
 4572.00    0.87485   0.90680   37.541
 4573.00    0.83032   0.90646   -1.000
 4574.00    0.83234   0.90573   -1.000
 4575.00    0.83237   0.90433   -1.000
 4576.00    0.82958   0.90215   -1.000
 4577.00    0.81775   0.89966   -1.000
 4578.00    0.83077   0.89661   -1.000
 4579.00    0.83073   0.89308   -1.000
 4580.00    0.82350   0.88952   -1.000
 4581.00    0.82851   0.88688   -1.000
 4582.00    0.81809   0.88479   -1.000
 4583.00    0.80510   0.88378   -1.000
 4584.00    0.81016   0.88377   -1.000
 4585.00    0.81029   0.88429   -1.000
 4586.00    0.81119   0.88531   -1.000
 4587.00    0.81697   0.88668   -1.000
 4588.00    0.83027   0.88804   -1.000
 4589.00    0.82888   0.88869   -1.000
 4590.00    0.82809   0.88851   -1.000
 4591.00    0.82881   0.88768   -1.000
 4592.00    0.82074   0.88599   -1.000
 4593.00    0.81804   0.88410   -1.000
 4594.00    0.82020   0.88220   -1.000
 4595.00    0.82518   0.88045   -1.000
 4596.00    0.82745   0.87905   38.100
 4597.00    0.82851   0.87815   38.049
 4598.00    0.80074   0.87749   -1.000
 4599.00    0.80809   0.87718   -1.000
 4600.00    0.82349   0.87690    0.000
 4601.00    0.81588   0.87656    0.000
 4602.00    0.80871   0.87688    0.000
 4603.00    0.80919   0.87770    0.000
 4604.00    0.82792   0.87873    0.000
 4605.00    0.81456   0.88054    0.000
 4606.00    0.83180   0.88355    0.000
 4607.00    0.84497   0.88691    0.000
 4608.00    0.84139   0.89021    0.000
 4609.00    0.82877   0.89390    0.000
 4610.00    0.82034   0.89669    0.000
 4611.00    0.82900   0.89892    0.000
 4612.00    0.81664   0.90041    0.000
 4613.00    0.81304   0.90135    0.000
 4614.00    0.81188   0.90203    0.000
 4615.00    0.81789   0.90272    0.000
 4616.00    0.80572   0.90334    0.000
 4617.00    0.81630   0.90369    0.000
 4618.00    0.81124   0.90412    0.000
 4619.00    0.79971   0.90449    0.000
 4620.00    0.80274   0.90444    0.000
 4621.00    0.81785   0.90401    0.000
 4622.00    0.81951   0.90346    0.000
 4623.00    0.81097   0.90237    0.000
 4624.00    0.81104   0.90094    0.000
 4625.00    0.80864   0.89948    0.000
 4626.00    0.81903   0.89771    0.000
 4627.00    0.82989   0.89590    0.000
 4628.00    0.82783   0.89440    0.000
 4629.00    0.81233   0.89305    0.000
 4630.00    0.81335   0.89134    0.000
 4631.00    0.81138   0.88961    0.000
 4632.00    0.81108   0.88790    0.000
 4633.00    0.82205   0.88573    0.000
 4634.00    0.81992   0.88286    0.000
 4635.00    0.82065   0.87982    0.000
 4636.00    0.80252   0.87678    0.000
 4637.00    0.81535   0.87353    0.000
 4638.00    0.84364   0.87043    0.000
 4639.00    0.85988   0.86775    0.000
 4640.00    0.86131   0.86529    0.000
 4641.00    0.85592   0.86301    0.000
 4642.00    0.86120   0.86066    0.000
 4643.00    0.84008   0.85831    0.000
 4644.00    0.82129   0.85540    0.000
 4645.00    0.80318   0.85295    0.000
 4646.00    0.80368   0.85071    0.000
 4647.00    0.83096   0.84943    0.000
 4648.00    0.85325   0.84967    0.000
 4649.00    0.87529   0.85100    0.000
 4650.00    0.87694   0.85344    0.000
 4651.00    0.84072   0.85673    0.000
 4652.00    0.82887   0.86034    0.000
 4653.00    0.81552   0.86386    0.000
 4654.00    0.84835   0.86751    0.000
 4655.00    0.96422   0.87105    0.000
 4656.00    1.13458   0.87465    0.000
 4657.00    1.26683   0.87796    0.000
 4658.00    1.30499   0.88079    0.000
 4659.00    1.10382   0.88269    0.000
 4660.00    0.87438   0.88338    0.000
 4661.00    0.82519   0.88165    0.000
 4662.00    0.83315   0.87818    0.000
 4663.00    0.82941   0.87348    0.000
 4664.00    0.82307   0.86732    0.000
 4665.00    0.82322   0.86095    0.000
 4666.00    0.82485   0.85518    0.000
 4667.00    0.81982   0.85034    0.000
 4668.00    0.81114   0.84727    0.000
 4669.00    0.81592   0.84606    0.000
 4670.00    0.82299   0.84660    0.000
 4671.00    0.79706   0.84825    0.000
 4672.00    0.82026   0.85067    0.000
 4673.00    0.81898   0.85276    0.000
 4674.00    0.81207   0.85465    0.000
 4675.00    0.80982   0.85577    0.000
 4676.00    0.81054   0.85571    0.000
 4677.00    0.80538   0.85489    0.000
 4678.00    0.80541   0.85287    0.000
 4679.00    0.78243   0.84995    0.000
 4680.00    0.77350   0.84681    0.000
 4681.00    0.78216   0.84354    0.000
 4682.00    0.78595   0.84025    0.000
 4683.00    0.77052   0.83770    0.000
 4684.00    0.75641   0.83587    0.000
 4685.00    0.75097   0.83463    0.000
 4686.00    0.76498   0.83445    0.000
 4687.00    0.77310   0.83515    0.000
 4688.00    0.77730   0.83667    0.000
 4689.00    0.77874   0.83891    0.000
 4690.00    0.78945   0.84159    0.000
 4691.00    0.79224   0.84420    0.000
 4692.00    0.79438   0.84648    0.000
 4693.00    0.79681   0.84851    0.000
 4694.00    0.80539   0.84980    0.000
 4695.00    0.80697   0.84988    0.000
 4696.00    0.79471   0.84905    0.000
 4697.00    0.81039   0.84742    0.000
 4698.00    0.82733   0.84503    0.000
 4699.00    0.88197   0.84187    0.000
 4700.00    0.93634   0.83903    0.000
 4701.00    0.95191   0.83662    0.000
 4702.00    0.91532   0.83437    0.000
 4703.00    0.83718   0.83271    0.000
 4704.00    0.80953   0.83173    0.000
 4705.00    0.82210   0.83108    0.000
 4706.00    0.82142   0.83073    0.000
 4707.00    0.81984   0.83054    0.000
 4708.00    0.84690   0.83028    0.000
 4709.00    0.92200   0.83033    0.000
 4710.00    1.09143   0.83065    0.000
 4711.00    1.29106   0.83126    0.000
 4712.00    1.39368   0.83209    0.000
 4713.00    1.32828   0.83349    0.000
 4714.00    1.09861   0.83550    0.000
 4715.00    0.85509   0.83795    0.000
 4716.00    0.80462   0.84095    0.000
 4717.00    0.80501   0.84445    0.000
 4718.00    0.79404   0.84793    0.000
 4719.00    0.79203   0.85070    0.000
 4720.00    0.79223   0.85295    0.000
 4721.00    0.78917   0.85418    0.000
 4722.00    0.79029   0.85395    0.000
 4723.00    0.78209   0.85224    0.000
 4724.00    0.78414   0.84939    0.000
 4725.00    0.77696   0.84537    0.000
 4726.00    0.77344   0.84061    0.000
 4727.00    0.78343   0.83554    0.000
 4728.00    0.78350   0.83047    0.000
 4729.00    0.78876   0.82673    0.000
 4730.00    0.79861   0.82400    0.000
 4731.00    0.81611   0.82262    0.000
 4732.00    0.83999   0.82265    0.000
 4733.00    0.84525   0.82355    0.000
 4734.00    0.85147   0.82508    0.000
 4735.00    0.82275   0.82688    0.000
 4736.00    0.81273   0.82856    0.000
 4737.00    0.86217   0.83022    0.000
 4738.00    0.99666   0.83143    0.000
 4739.00    1.14779   0.83247    0.000
 4740.00    1.22319   0.83347    0.000
 4741.00    1.05975   0.83397    0.000
 4742.00    0.85931   0.83459    0.000
 4743.00    0.79743   0.83549    0.000
 4744.00    0.77767   0.83629    0.000
 4745.00    0.78664   0.83730    0.000
 4746.00    0.78814   0.83832    0.000
 4747.00    0.79701   0.83926    0.000
 4748.00    0.79012   0.83971    0.000
 4749.00    0.78717   0.83968    0.000
 4750.00    0.78255   0.83917    0.000
 4751.00    0.79160   0.83783   -1.000
 4752.00    0.82132   0.83589   38.064
 4753.00    0.85183   0.83377   37.363
 4754.00    0.86085   0.83118   37.151
 4755.00    0.86118   0.82867   37.133
 4756.00    0.81579   0.82628   38.138
 4757.00    0.79092   0.82384   38.726
 4758.00    0.77664   0.82121   39.073
 4759.00    0.77768   0.81846   39.032
 4760.00    0.77924   0.81542   38.997
 4761.00    0.78283   0.81182   38.886
 4762.00    0.78172   0.80830   38.907
 4763.00    0.77907   0.80482   38.976
 4764.00    0.77334   0.80156   39.108
 4765.00    0.76363   0.79942   39.345
 4766.00    0.78182   0.79831   38.879
 4767.00    0.80602   0.79817   38.283
 4768.00    0.83220   0.79909   37.672
 4769.00    0.83733   0.80114   37.558
 4770.00    0.83473   0.80344   37.615
 4771.00    0.79595   0.80610   38.508
 4772.00    0.78786   0.80857   38.708
 4773.00    0.78309   0.81084   38.824
 4774.00    0.78584   0.81311   38.749
 4775.00    0.79474   0.81446   38.516
 4776.00    0.81213   0.81518   38.110
 4777.00    0.81308   0.81519   38.073
 4778.00    0.79633   0.81422   38.455
 4779.00    0.78336   0.81253   38.774
 4780.00    0.77481   0.81018   38.984
 4781.00    0.77789   0.80733   38.900
 4782.00    0.78482   0.80454   38.704
 4783.00    0.78522   0.80182   38.700
 4784.00    0.78487   0.79964   38.693
 4785.00    0.77781   0.79832   38.857
 4786.00    0.76584   0.79790   39.144
 4787.00    0.77377   0.79843   38.924
 4788.00    0.77342   0.80003   38.920
 4789.00    0.77392   0.80251   38.904
 4790.00    0.78532   0.80583   38.617
 4791.00    0.79198   0.80968   38.435
 4792.00    0.78855   0.81367   38.504
 4793.00    0.78363   0.81770   38.616
 4794.00    0.79559   0.82093   38.319
 4795.00    0.80459   0.82342   38.082
 4796.00    0.79516   0.82495   38.301
 4797.00    0.77071   0.82541   -1.000
 4798.00    0.77711   0.82511   38.722
 4799.00    0.78493   0.82448   38.512
 4800.00    0.78392   0.82371   38.545
 4801.00    0.79322   0.82287   38.318
 4802.00    0.77576   0.82191   38.717
 4803.00    0.77725   0.82131   38.673
 4804.00    0.78794   0.82008   38.401
 4805.00    0.79225   0.81844   38.276
 4806.00    0.79941   0.81720   38.113
 4807.00    0.79152   0.81584   38.297
 4808.00    0.78270   0.81436   38.496
 4809.00    0.78351   0.81379   38.472
 4810.00    0.79451   0.81381   38.196
 4811.00    0.78815   0.81401   38.343
 4812.00    0.79891   0.81508   38.074
 4813.00    0.81192   0.81648   37.761
 4814.00    0.81446   0.81792   37.689
 4815.00    0.81477   0.81963   37.653
 4816.00    0.80730   0.82111   37.817
 4817.00    0.78863   0.82208   38.251
 4818.00    0.78656   0.82249   38.294
 4819.00    0.78874   0.82210   38.237
 4820.00    0.78946   0.82093   38.194
 4821.00    0.78072   0.81897   38.399
 4822.00    0.78354   0.81648   38.325
 4823.00    0.79593   0.81379   38.009
 4824.00    0.79553   0.81116   38.007
 4825.00    0.79268   0.80871   38.067
 4826.00    0.79570   0.80660   37.980
 4827.00    0.80386   0.80518   37.779
 4828.00    0.80866   0.80361   37.641
 4829.00    0.80706   0.80216   37.648
 4830.00    0.79956   0.80143   37.820
 4831.00    0.81620   0.80085   37.413
 4832.00    0.81610   0.80026   37.397
 4833.00    0.82104   0.80027   37.265
 4834.00    0.82811   0.80062   37.086
 4835.00    0.84462   0.80092   36.698
 4836.00    0.83757   0.80106   36.842
 4837.00    0.83516   0.80104   36.875
 4838.00    0.84107   0.80071   36.720
 4839.00    0.85096   0.79995   36.482
 4840.00    0.85609   0.79914   36.343
 4841.00    0.86404   0.79833   36.154
 4842.00    0.88641   0.79771   35.681
 4843.00    0.91689   0.79741   -1.000
 4844.00    0.94502   0.79711   -1.000
 4845.00    0.95245   0.79713   -1.000
 4846.00    0.97224   0.79717   -1.000
 4847.00    0.99560   0.79670   -1.000
 4848.00    1.00676   0.79571   -1.000
 4849.00    1.05548   0.79388   -1.000
 4850.00    1.07467   0.79130   -1.000
 4851.00    1.10909   0.78736   -1.000
 4852.00    1.13873   0.78211   -1.000
 4853.00    1.20265   0.77545   -1.000
 4854.00    1.30132   0.76724   -1.000
 4855.00    1.43791   0.75761   -1.000
 4856.00    1.80626   0.74650   -1.000
 4857.00    4.80098   0.73495    0.000
 4858.00   22.03890   0.72304    0.000
 4859.00   54.30880   0.71205    0.000
 4860.00   79.74696   0.70325    0.000
 4861.00   89.02348   0.69671    0.000
 4862.00   62.64099   0.69430    0.000
 4863.00   17.56260   0.69597    0.000
 4864.00    2.99501   0.70065    0.000
 4865.00    1.70158   0.70791    0.000
 4866.00    1.45449   0.71675    0.000
 4867.00    1.32959   0.72564    0.000
 4868.00    1.24168   0.73357    0.000
 4869.00    1.18952   0.74039    0.000
 4870.00    1.13398   0.74617    0.000
 4871.00    1.08923   0.75053   -1.000
 4872.00    1.05251   0.75451   -1.000
 4873.00    1.02620   0.75861   -1.000
 4874.00    0.99153   0.76280   -1.000
 4875.00    0.94991   0.76725   -1.000
 4876.00    0.92483   0.77144   -1.000
 4877.00    0.92820   0.77546   -1.000
 4878.00    0.96114   0.77884   -1.000
 4879.00    1.01042   0.78098   -1.000
 4880.00    1.05145   0.78222   -1.000
 4881.00    1.04798   0.78222   -1.000
 4882.00    0.95740   0.78101   -1.000
 4883.00    0.85899   0.77907   36.109
 4884.00    0.83831   0.77667   36.534
 4885.00    0.83741   0.77382   36.536
 4886.00    0.82332   0.77088   36.843
 4887.00    0.82817   0.76861   36.727
 4888.00    0.82351   0.76709   36.807
 4889.00    0.83118   0.76665   36.621
 4890.00    0.83834   0.76796   36.454
 4891.00    0.81811   0.77065   36.900
 4892.00    0.80130   0.77518   37.266
 4893.00    0.81061   0.78117   37.055
 4894.00    0.80675   0.78757   37.148
 4895.00    0.80706   0.79454   37.138
 4896.00    0.79830   0.80029   37.318
 4897.00    0.79147   0.80470   37.493
 4898.00    0.79676   0.80800   37.380
 4899.00    0.80607   0.80943   37.177
 4900.00    0.80879   0.80940   37.113
 4901.00    0.79478   0.80880   37.455
 4902.00    0.80018   0.80793   37.346
 4903.00    0.81842   0.80678   36.938
 4904.00    0.81424   0.80572   37.038
 4905.00    0.80812   0.80500   37.187
 4906.00    0.80791   0.80427   37.199
 4907.00    0.80175   0.80339   37.365
 4908.00    0.78450   0.80213   37.792
 4909.00    0.77981   0.80101   37.916
 4910.00    0.78413   0.79960   37.814
 4911.00    0.78589   0.79789   37.792
 4912.00    0.78714   0.79659   37.772
 4913.00    0.79103   0.79446   37.699
 4914.00    0.78940   0.79167    0.000
 4915.00    0.77910   0.78828    0.000
 4916.00    0.77978   0.78334    0.000
 4917.00    0.80245   0.77786    0.000
 4918.00    0.89100   0.77205    0.000
 4919.00    1.17460   0.76632    0.000
 4920.00    1.49138   0.76230    0.000
 4921.00    1.71845   0.76026    0.000
 4922.00    1.68756   0.76059    0.000
 4923.00    1.25213   0.76357    0.000
 4924.00    0.90990   0.76881    0.000
 4925.00    0.84921   0.77503    0.000
 4926.00    0.83737   0.78223    0.000
 4927.00    0.82864   0.78940    0.000
 4928.00    0.84809   0.79515    0.000
 4929.00    0.88626   0.79982   35.768
 4930.00    0.91445   0.80267   35.229
 4931.00    0.91323   0.80320   35.250
 4932.00    0.88709   0.80225   35.771
 4933.00    0.86864   0.80000   36.165
 4934.00    0.86907   0.79622   36.178
 4935.00    0.87749   0.79240   36.013
 4936.00    0.89053   0.78901   35.749
 4937.00    0.90112   0.78590   -1.000
 4938.00    0.90662   0.78426   -1.000
 4939.00    0.93700   0.78392   -1.000
 4940.00    0.95951   0.78517   -1.000
 4941.00    0.95356   0.78807   -1.000
 4942.00    0.97470   0.79146   -1.000
 4943.00    0.98315   0.79572    0.000
 4944.00    1.05457   0.80028    0.000
 4945.00    1.10770   0.80436    0.000
 4946.00    1.14328   0.80791    0.000
 4947.00    1.17619   0.81072    0.000
 4948.00    1.24909   0.81267    0.000
 4949.00    1.32066   0.81313    0.000
 4950.00    1.41846   0.81199    0.000
 4951.00    1.56222   0.80953    0.000
 4952.00    1.76011   0.80483    0.000
 4953.00    2.11549   0.79846    0.000
 4954.00    3.51379   0.79144    0.000
 4955.00   14.51340   0.78301    0.000
 4956.00   55.36525   0.77530    0.000
 4957.00  111.79202   0.76921    0.000
 4958.00  155.62817   0.76360    0.000
 4959.00  154.40613   0.76075    0.000
 4960.00   79.30508   0.75998    0.000
 4961.00   15.20369   0.75965    0.000
 4962.00    3.31236   0.76040    0.000
 4963.00    2.14854   0.76138    0.000
 4964.00    1.81243   0.76209    0.000
 4965.00    1.62250   0.76231    0.000
 4966.00    1.49555   0.76248    0.000
 4967.00    1.39454   0.76326    0.000
 4968.00    1.30960   0.76404    0.000
 4969.00    1.24067   0.76556    0.000
 4970.00    1.19499   0.76803    0.000
 4971.00    1.17094   0.77028    0.000
 4972.00    1.16014   0.77270   -1.000
 4973.00    1.13502   0.77464   -1.000
 4974.00    1.10573   0.77522   -1.000
 4975.00    1.08517   0.77484   -1.000
 4976.00    1.08359   0.77280   -1.000
 4977.00    1.08615   0.76926   -1.000
 4978.00    1.09214   0.76484   -1.000
 4979.00    1.08810   0.75928   -1.000
 4980.00    1.08548   0.75364   -1.000
 4981.00    1.09996   0.74863   -1.000
 4982.00    1.12993   0.74424   -1.000
 4983.00    1.18424   0.74143   -1.000
 4984.00    1.26100   0.74045   -1.000
 4985.00    1.33045   0.74103   -1.000
 4986.00    1.34551   0.74298   -1.000
 4987.00    1.33184   0.74594   -1.000
 4988.00    1.33950   0.74934   -1.000
 4989.00    1.35965   0.75271   -1.000
 4990.00    1.42140   0.75557   -1.000
 4991.00    1.49506   0.75793   -1.000
 4992.00    1.58669   0.75961   -1.000
 4993.00    1.68535   0.76028   -1.000
 4994.00    1.80267   0.76042   -1.000
 4995.00    1.95566   0.75961    0.000
 4996.00    2.13791   0.75771    0.000
 4997.00    2.37880   0.75522    0.000
 4998.00    2.66207   0.75179    0.000
 4999.00    3.06301   0.74775    0.000
 5000.00    3.68286   0.74343    0.000
 5001.00    4.80179   0.73907    0.000
 5002.00    9.87169   0.73513    0.000
 5003.00   48.82995   0.73161    0.000
 5004.00  181.11263   0.72881    0.000
 5005.00  355.01895   0.72678    0.000
 5006.00  484.67694   0.72548    0.000
 5007.00  461.68805   0.72446    0.000
 5008.00  224.37273   0.72366    0.000
 5009.00   40.64008   0.72313    0.000
 5010.00    8.11728   0.72194    0.000
 5011.00    4.88904   0.72043   -1.000
 5012.00    4.04618   0.71892   -1.000
 5013.00    4.09918   0.71721   -1.000
 5014.00    4.31360   0.71570   -1.000
 5015.00    4.31554   0.71499   -1.000
 5016.00    3.74322   0.71510   -1.000
 5017.00    2.60308   0.71583   -1.000
 5018.00    1.90835   0.71748   -1.000
 5019.00    1.69843   0.71961   -1.000
 5020.00    1.57228   0.72190   -1.000
 5021.00    1.47464   0.72452   -1.000
 5022.00    1.40997   0.72703   -1.000
 5023.00    1.34603   0.72947   -1.000
 5024.00    1.27699   0.73209   -1.000
 5025.00    1.22232   0.73464   -1.000
 5026.00    1.18832   0.73743   -1.000
 5027.00    1.12382   0.74023   -1.000
 5028.00    1.07401   0.74309   -1.000
 5029.00    1.05644   0.74599   -1.000
 5030.00    1.04423   0.74845   -1.000
 5031.00    1.01923   0.75033   -1.000
 5032.00    1.00257   0.75117   -1.000
 5033.00    0.97138   0.75070   -1.000
 5034.00    0.94106   0.74872   -1.000
 5035.00    0.91499   0.74554   -1.000
 5036.00    0.90948   0.74109   -1.000
 5037.00    0.91645   0.73599   -1.000
 5038.00    0.94115   0.73141   -1.000
 5039.00    0.97442   0.72748   -1.000
 5040.00    0.99409   0.72495   -1.000
 5041.00    0.98257   0.72421   -1.000
 5042.00    0.91967   0.72560   -1.000
 5043.00    0.83628   0.72854   -1.000
 5044.00    0.84293   0.73195   -1.000
 5045.00    0.88804   0.73615   -1.000
 5046.00    0.93388   0.73961   -1.000
 5047.00    0.95515   0.74175   -1.000
 5048.00    0.92580   0.74331   -1.000
 5049.00    0.84580   0.74399   36.240
 5050.00    0.80013   0.74375   37.254
 5051.00    0.79690   0.74421   37.333
 5052.00    0.79182   0.74528   37.448
 5053.00    0.82350   0.74656   36.713
 5054.00    0.87404   0.74916   -1.000
 5055.00    0.91674   0.75234   -1.000
 5056.00    0.90581   0.75537   -1.000
 5057.00    0.83123   0.75856   36.551
 5058.00    0.76462   0.76110   38.092
 5059.00    0.76535   0.76265   38.083
 5060.00    0.76092   0.76298   38.187
 5061.00    0.76285   0.76202   38.144
 5062.00    0.75119   0.75984   38.442
 5063.00    0.74807   0.75645   38.512
 5064.00    0.73952   0.75259   38.722
 5065.00    0.75069   0.74830   38.448
 5066.00    0.74963   0.74428   38.467
 5067.00    0.74474   0.74114   38.592
 5068.00    0.75002   0.73849   38.462
 5069.00    0.75186   0.73662   38.421
 5070.00    0.74344   0.73561   38.646
 5071.00    0.74445   0.73509   38.602
 5072.00    0.74640   0.73448   38.559
 5073.00    0.74870   0.73374   38.510
 5074.00    0.74499   0.73294   38.592
 5075.00    0.75338   0.73143   38.384
 5076.00    0.74859   0.72914   38.511
 5077.00    0.74064   0.72662   38.704
 5078.00    0.74021   0.72393   38.725
 5079.00    0.73674   0.72105   38.821
 5080.00    0.73252   0.71880   38.919
 5081.00    0.73185   0.71750   38.933
 5082.00    0.75299   0.71725   38.394
 5083.00    0.75277   0.71823   38.397
 5084.00    0.74176   0.72038   38.669
 5085.00    0.73294   0.72333   38.908
 5086.00    0.73379   0.72713   38.887
 5087.00    0.72161   0.73099   39.214
 5088.00    0.72213   0.73462   39.198
 5089.00    0.72465   0.73819   39.119
 5090.00    0.73218   0.74076   38.928
 5091.00    0.74000   0.74243   38.727
 5092.00    0.74143   0.74342   38.681
 5093.00    0.74321   0.74273   38.625
 5094.00    0.73721   0.74130   38.783
 5095.00    0.74211   0.73920   38.671
 5096.00    0.73809   0.73571   38.769
 5097.00    0.73704   0.73255   38.790
 5098.00    0.73812   0.72966   38.766
 5099.00    0.72363   0.72667   39.139
 5100.00    0.72789   0.72449   39.024
 5101.00    0.73202   0.72312   38.931
 5102.00    0.72570   0.72185   39.095
 5103.00    0.72256   0.72097   39.176
 5104.00    0.71292   0.72020   39.433
 5105.00    0.71768   0.71926   39.308
 5106.00    0.72500   0.71862   39.110
 5107.00    0.72197   0.71808   39.181
 5108.00    0.74364   0.71776   38.615
 5109.00    0.74568   0.71837   38.561
 5110.00    0.73576   0.71952   38.810
 5111.00    0.73137   0.72136   38.921
 5112.00    0.73692   0.72416   38.769
 5113.00    0.72282   0.72714   39.136
 5114.00    0.71745   0.73018   39.286
 5115.00    0.70853   0.73319   39.536
 5116.00    0.72538   0.73531   39.067
 5117.00    0.72894   0.73615   38.973
 5118.00    0.72726   0.73605   39.004
 5119.00    0.72015   0.73444   39.195
 5120.00    0.71006   0.73108   39.463
 5121.00    0.72321   0.72729   39.085
 5122.00    0.71654   0.72267   39.248
 5123.00    0.72196   0.71763   39.112
 5124.00    0.73195   0.71353   38.838
 5125.00    0.71997   0.70983   39.169
 5126.00    0.71733   0.70737   39.222
 5127.00    0.72681   0.70635   38.966
 5128.00    0.73787   0.70630   38.660
 5129.00    0.73494   0.70767   38.727
 5130.00    0.74341   0.70969   38.500
 5131.00    0.74218   0.71224   38.520
 5132.00    0.73383   0.71531   38.729
 5133.00    0.72996   0.71778   38.840
 5134.00    0.71331   0.71983   39.266
 5135.00    0.71630   0.72113   39.166
 5136.00    0.71892   0.72148   39.101
 5137.00    0.73131   0.72124   38.762
 5138.00    0.73501   0.71993   38.651
 5139.00    0.72396   0.71822   38.952
 5140.00    0.72546   0.71652   38.892
 5141.00    0.73210   0.71437   38.715
 5142.00    0.71931   0.71246   39.045
 5143.00    0.72203   0.71052   38.964
 5144.00    0.72834   0.70840   38.785
 5145.00    0.74523   0.70687   38.330
 5146.00    0.74554   0.70516   38.307
 5147.00    0.73826   0.70329   38.483
 5148.00    0.73454   0.70215   38.571
 5149.00    0.74340   0.70112   38.332
 5150.00    0.73504   0.70055   38.532
 5151.00    0.73280   0.70064   38.590
 5152.00    0.71946   0.70137   38.937
 5153.00    0.72018   0.70335   38.898
 5154.00    0.71286   0.70594   39.083
 5155.00    0.71983   0.70924   38.890
 5156.00    0.75280   0.71303   38.019
 5157.00    0.77318   0.71652   37.497
 5158.00    0.79642   0.71885   36.943
 5159.00    0.80305   0.71958   36.780
 5160.00    0.74852   0.71808   38.085
 5161.00    0.72518   0.71388   38.676
 5162.00    0.72808   0.70702   38.592
 5163.00    0.72422   0.69752   38.698
 5164.00    0.71944   0.68597   38.813
 5165.00    0.72581   0.67346   38.628
 5166.00    0.72663   0.66033   38.587
 5167.00    0.73244   0.64781   38.450
 5168.00    0.73667   0.63702   -1.000
 5169.00    0.72614   0.62852   -1.000
 5170.00    0.72038   0.62267   -1.000
 5171.00    0.72768   0.62006   -1.000
 5172.00    0.72343   0.61924   -1.000
 5173.00    0.70981   0.62133   -1.000
 5174.00    0.69666   0.62542   39.358
 5175.00    0.71809   0.62985   38.755
 5176.00    0.71172   0.63514   38.909
 5177.00    0.71877   0.63869   38.710
 5178.00    0.72802   0.64116   38.458
 5179.00    0.71617   0.64225   38.756
 5180.00    0.72346   0.64152   38.566
 5181.00    0.73477   0.64036   38.253
 5182.00    0.71818   0.63924   38.690
 5183.00    0.72075   0.63915   38.613
 5184.00    0.71890   0.64073   38.647
 5185.00    0.71649   0.64426   38.720
 5186.00    0.71007   0.65015   38.890
 5187.00    0.72270   0.65616   38.539
 5188.00    0.73663   0.66288   38.158
 5189.00    0.75552   0.66913   37.672
 5190.00    0.79863   0.67421    0.000
 5191.00    0.82276   0.67859    0.000
 5192.00    0.80510   0.68195    0.000
 5193.00    0.74572   0.68431    0.000
 5194.00    0.74823   0.68725    0.000
 5195.00    0.83869   0.69010    0.000
 5196.00    0.95575   0.69232    0.000
 5197.00    1.04678   0.69460    0.000
 5198.00    1.09256   0.69633    0.000
 5199.00    1.02703   0.69626    0.000
 5200.00    0.94188   0.69464    0.000
 5201.00    0.85860   0.69153    0.000
 5202.00    0.75542   0.68600    0.000
 5203.00    0.71223   0.67961    0.000
 5204.00    0.69763   0.67292    0.000
 5205.00    0.70418   0.66564    0.000
 5206.00    0.69666   0.66051   39.104
 5207.00    0.69545   0.65731   39.123
 5208.00    0.69290   0.65663   39.192
 5209.00    0.69442   0.65898   39.144
 5210.00    0.69735   0.66382   39.067
 5211.00    0.69933   0.67078   38.996
 5212.00    0.70402   0.67943   38.864
 5213.00    0.70290   0.68810   38.869
 5214.00    0.70491   0.69675   38.805
 5215.00    0.69764   0.70443   39.015
 5216.00    0.69482   0.71084   39.088
 5217.00    0.71465   0.71593   38.521
 5218.00    0.71438   0.71955   38.549
 5219.00    0.72656   0.72155   38.199
 5220.00    0.72367   0.72170   38.261
 5221.00    0.70926   0.72038   38.644
 5222.00    0.70660   0.71748   38.703
 5223.00    0.72047   0.71377   38.321
 5224.00    0.71355   0.70972   38.502
 5225.00    0.69577   0.70545   38.970
 5226.00    0.69057   0.70312   39.120
 5227.00    0.70111   0.70174   38.811
 5228.00    0.71460   0.70171   38.444
 5229.00    0.71619   0.70424   38.394
 5230.00    0.70850   0.70721   38.592
 5231.00    0.71683   0.71098   38.358
 5232.00    0.72122   0.71536   38.230
 5233.00    0.72414   0.71966   38.153
 5234.00    0.72261   0.72382   38.184
 5235.00    0.72127   0.72841   38.217
 5236.00    0.71350   0.73243   38.412
 5237.00    0.70687   0.73617   38.575
 5238.00    0.70473   0.73941   38.626
 5239.00    0.70872   0.74161   38.517
 5240.00    0.71358   0.74304   38.368
 5241.00    0.70529   0.74339   38.588
 5242.00    0.70115   0.74264   38.713
 5243.00    0.70092   0.74070   38.710
 5244.00    0.71656   0.73820   38.267
 5245.00    0.71818   0.73474   38.206
 5246.00    0.70614   0.73082   38.530
 5247.00    0.69714   0.72701   38.790
 5248.00    0.69460   0.72315   38.848
 5249.00    0.71666   0.72082   38.228
 5250.00    0.71593   0.71910   38.234
 5251.00    0.70154   0.71809   38.620
 5252.00    0.70124   0.71883   38.611
 5253.00    0.71682   0.72021   38.193
 5254.00    0.70882   0.72216   38.406
 5255.00    0.71068   0.72432   38.361
 5256.00    0.71178   0.72569   38.316
 5257.00    0.71435   0.72654   38.244
 5258.00    0.72333   0.72578   37.995
 5259.00    0.74630   0.72274   37.411
 5260.00    0.77753   0.71790   36.637
 5261.00    0.77222   0.71069   36.755
 5262.00    0.76006   0.70237   37.034
 5263.00    0.73516   0.69293   37.643
 5264.00    0.72297   0.68337   37.972
 5265.00    0.71142   0.67499   38.273
 5266.00    0.72134   0.66771   38.007
 5267.00    0.78138   0.66228   -1.000
 5268.00    0.87952   0.66049   -1.000
 5269.00    0.97729   0.65972   -1.000
 5270.00    1.01529   0.66208   -1.000
 5271.00    0.95568   0.66735   -1.000
 5272.00    0.82188   0.67347   -1.000
 5273.00    0.75914   0.68301   36.976
 5274.00    0.73501   0.69091   37.557
 5275.00    0.71537   0.69958   38.065
 5276.00    0.69929   0.70812   38.490
 5277.00    0.69881   0.71445   38.489
 5278.00    0.70234   0.72070   38.390
 5279.00    0.71299   0.72478   38.097
 5280.00    0.72353   0.72771   37.821
 5281.00    0.70243   0.73007   38.365
 5282.00    0.69647   0.73225   38.522
 5283.00    0.69981   0.73437   38.424
 5284.00    0.69683   0.73706   38.489
 5285.00    0.70037   0.74088   38.375
 5286.00    0.70503   0.74440   38.234
 5287.00    0.70715   0.74856   38.205
 5288.00    0.70867   0.75176   38.152
 5289.00    0.70144   0.75377   -1.000
 5290.00    0.69825   0.75517   -1.000
 5291.00    0.69782   0.75478   -1.000
 5292.00    0.69654   0.75279   -1.000
 5293.00    0.70945   0.74970   38.081
 5294.00    0.69264   0.74515   -1.000
 5295.00    0.69895   0.74050   38.350
 5296.00    0.72278   0.73597   37.704
 5297.00    0.72612   0.73120   37.615
 5298.00    0.71443   0.72876   37.897
 5299.00    0.71768   0.72746   37.802
 5300.00    0.69470   0.72858   38.422
