###################################################################
## OUTPUT of StarlightChains_v04.for    [Cid@UFSC - 01/Apr/2007] ##
###################################################################

## Some input info
M33_LS1_20220501f_1.spec                 [arq_obs]
Base.BC03.N                              [arq_base]
Mask.EmLines_CHAOS_focusbluefit.gm       [arq_masks]
StCv04.C11.config                        [arq_config]
   45                                    [N_base]
    0                                    [N_YAV_components = # of components with extra extinction!]
    0                                    [i_FitPowerLaw (1/0 = Yes/No)]
-9.99                                    [alpha_PowerLaw]
CCM                                      [red_law_option]
 1.458241                                [q_norm = A(l_norm)/A(V)]

## (Re)Sampling Parameters
 3100.00                                 [l_ini (A)]
 5300.00                                 [l_fin (A)]
    1.00                                 [dl    (A)]     (OBS: dl_cushion =    50.00 A)

## Normalization info
 4020.00                                 [l_norm (A) - for base]
 4010.00                                 [llow_norm (A) - window for f_obs]
 4060.00                                 [lupp_norm (A) - window for f_obs]
6.445266E-17                             [fobs_norm (in input units)]

## S/N
 4730.00                                 [llow_SN (A) - window for S/N]
 4780.00                                 [lupp_SN (A) - window for S/N]
  35.967                                 [S/N in S/N window]
  48.331                                 [S/N in norm. window]
  15.376                                 [S/N_err in S/N window]
  20.662                                 [S/N_err in norm. window]
  1.0000                                 [fscale_chi2]

## etc...
    -2007201                             [idum_orig]
  1493                                   [NOl_eff]
   915                                   [Nl_eff]
   578    NSIGMA                         [Ntot_cliped & clip_method]
   200480                                [Nglobal_steps]
   7                                     [N_chains]
   5                                     [NEX0s_base = N_base in EX0s-fits]
 0   0   1        0   2.0   2.748E+01    [Clip-Bug, RC-Crash & Burn-In warning-flags, n_censored_weights, wei_nsig_threshold & wei_limit]
     4      4.208      4.196      0.012  [idt_all, wdt_TotTime, wdt_UsrTime & wdt_SysTime (sec)]

## Synthesis Results - Best model ##

 2.12893E+00                             [chi2/Nl_eff]
     8.09893                             [adev (%)]

   122.89736                             [sum-of-x (%)]
 2.06770E-17                             [Flux_tot (units of input spectrum!)]
 8.65860E-13                             [Mini_tot (???)]
 4.35208E-13                             [Mcor_tot (???)]

 -34.25                                  [v0_min  (km/s)]
 290.10                                  [vd_min  (km/s)]
-1.0000                                  [AV_min  (mag)]
 0.0000                                  [YAV_min (mag)]

# j     x_j(%)      Mini_j(%)     Mcor_j(%)     age_j(yr)     Z_j      (L/M)_j    YAV?  Mstars   component_j        a/Fe...       SSP_chi2r SSP_adev(%)   SSP_AV   SSP_x(%)
  1     95.5847     1.6672E-01    3.3170E-01    1.000000E+06  0.00400  1.114E-02    0   1.0000   age020_m42            0.0000     4.5619E+00    12.6135   0.7130   121.8838
  2      0.0000     0.0000E+00    0.0000E+00    3.160000E+06  0.00400  4.073E-02    0   0.9999   age045_m42            0.0000     8.9388E+00    17.8570  -0.2071   134.9676
  3      0.0000     0.0000E+00    0.0000E+00    5.010000E+06  0.00400  2.534E-02    0   0.9488   age055_m42            0.0000     7.3035E+00    16.0768   0.1812   129.3173
  4      0.0000     0.0000E+00    0.0000E+00    1.000000E+07  0.00400  1.271E-02    0   0.8862   age070_m42            0.0000     7.6000E+00    16.3396  -0.4487   131.8459
  5      0.0000     0.0000E+00    0.0000E+00    2.512000E+07  0.00400  5.070E-03    0   0.8174   age090_m42            0.0000     8.0856E+00    16.9625  -0.6044   134.1024
  6      0.0000     0.0000E+00    0.0000E+00    4.000000E+07  0.00400  3.505E-03    0   0.7851   age104_m42            0.0000     9.1981E+00    18.2990  -0.9636   137.4155
  7      0.0000     0.0000E+00    0.0000E+00    1.015200E+08  0.00400  2.268E-03    0   0.7207   age116_m42            0.0000     1.6106E+01    23.9291  -0.9381   141.0982
  8      0.0000     0.0000E+00    0.0000E+00    2.861200E+08  0.00400  1.079E-03    0   0.6613   age125_m42            0.0000     1.9687E+01    24.7041  -1.0000   134.8319
  9      0.0000     0.0000E+00    0.0000E+00    6.405400E+08  0.00400  5.077E-04    0   0.6197   age132_m42            0.0000     2.1609E+01    24.5731  -1.0000   131.8305
 10      0.0000     0.0000E+00    0.0000E+00    9.047900E+08  0.00400  3.535E-04    0   0.6024   age135_m42            0.0000     2.2336E+01    24.8630  -1.0000   126.0870
 11      0.0000     0.0000E+00    0.0000E+00    1.434000E+09  0.00400  1.910E-04    0   0.5716   age139_m42            0.0000     2.5741E+01    27.9851  -1.0000   112.3167
 12      0.0000     0.0000E+00    0.0000E+00    2.500000E+09  0.00400  9.818E-05    0   0.5463   age150_m42            0.0000     2.9141E+01    30.5473  -1.0000   101.5425
 13      0.0000     0.0000E+00    0.0000E+00    5.000000E+09  0.00400  4.718E-05    0   0.5228   age161_m42            0.0000     3.1879E+01    32.4613  -1.0000    94.9774
 14      0.0000     0.0000E+00    0.0000E+00    1.100000E+10  0.00400  2.205E-05    0   0.4980   age185_m42            0.0000     3.6801E+01    35.2742  -1.0000    86.6727
 15      0.0000     0.0000E+00    0.0000E+00    1.300000E+10  0.00400  1.883E-05    0   0.4927   age193_m42            0.0000     3.7316E+01    35.5124  -1.0000    86.1873
 16      0.0000     0.0000E+00    0.0000E+00    1.000000E+06  0.02000  1.989E-02    0   1.0000   age020_m62            0.0000     4.6415E+00    12.6728   0.6753   122.9438
 17      0.0000     0.0000E+00    0.0000E+00    3.160000E+06  0.02000  3.772E-02    0   0.9858   age045_m62            0.0000     5.8433E+00    14.3602   0.5239   125.7417
 18      0.0000     0.0000E+00    0.0000E+00    5.010000E+06  0.02000  3.227E-02    0   0.9342   age055_m62            0.0000     9.2313E+00    18.0002   0.0522   131.1641
 19      0.0000     0.0000E+00    0.0000E+00    1.000000E+07  0.02000  1.011E-02    0   0.8751   age070_m62            0.0000     5.5494E+00    13.7958  -0.3293   130.1580
 20      0.0000     0.0000E+00    0.0000E+00    2.512000E+07  0.02000  4.206E-03    0   0.8099   age090_m62            0.0000     6.8921E+00    15.6168  -0.5197   131.2236
 21      0.0000     0.0000E+00    0.0000E+00    4.000000E+07  0.02000  3.373E-03    0   0.7799   age104_m62            0.0000     1.0081E+01    19.0661  -0.7129   136.9193
 22      0.0000     0.0000E+00    0.0000E+00    1.015200E+08  0.02000  1.878E-03    0   0.7221   age116_m62            0.0000     1.5693E+01    23.6655  -0.8761   141.5765
 23      0.0000     0.0000E+00    0.0000E+00    2.861200E+08  0.02000  8.869E-04    0   0.6700   age125_m62            0.0000     2.2452E+01    26.7138  -1.0000   139.6818
 24      0.0000     0.0000E+00    0.0000E+00    6.405400E+08  0.02000  3.657E-04    0   0.6322   age132_m62            0.0000     2.5906E+01    27.0697  -1.0000   127.4126
 25      0.0000     0.0000E+00    0.0000E+00    9.047900E+08  0.02000  2.312E-04    0   0.6152   age135_m62            0.0000     2.7500E+01    28.5195  -1.0000   117.6677
 26      0.0000     0.0000E+00    0.0000E+00    1.434000E+09  0.02000  1.168E-04    0   0.5865   age139_m62            0.0000     3.1026E+01    31.2458  -1.0000   102.6855
 27      0.0000     0.0000E+00    0.0000E+00    2.500000E+09  0.02000  5.505E-05    0   0.5610   age150_m62            0.0000     3.6498E+01    34.7439  -1.0000    91.0620
 28      0.0000     0.0000E+00    0.0000E+00    5.000000E+09  0.02000  2.596E-05    0   0.5353   age161_m62            0.0000     4.2689E+01    37.8217  -1.0000    82.6198
 29      0.0000     0.0000E+00    0.0000E+00    1.100000E+10  0.02000  1.169E-05    0   0.5103   age185_m62            0.0000     4.9240E+01    40.6859  -1.0000    75.0924
 30      0.0000     0.0000E+00    0.0000E+00    1.300000E+10  0.02000  9.691E-06    0   0.5047   age193_m62            0.0000     5.0171E+01    41.0426  -1.0000    74.2390
 31      0.0000     0.0000E+00    0.0000E+00    1.000000E+06  0.05000  2.651E-02    0   0.9998   age020_m72            0.0000     4.8141E+00    12.9038   0.6512   123.9567
 32      0.0000     0.0000E+00    0.0000E+00    3.160000E+06  0.05000  4.817E-02    0   0.9577   age045_m72            0.0000     7.5376E+00    16.2289   0.3454   129.0478
 33      0.0000     0.0000E+00    0.0000E+00    5.010000E+06  0.05000  3.101E-02    0   0.9147   age055_m72            0.0000     7.4551E+00    16.1236   0.0652   131.4314
 34      0.0000     0.0000E+00    0.0000E+00    1.000000E+07  0.05000  8.954E-03    0   0.8524   age070_m72            0.0000     7.1199E+00    15.8444   0.2201   130.6001
 35      0.0000     0.0000E+00    0.0000E+00    2.512000E+07  0.05000  4.207E-03    0   0.7902   age090_m72            0.0000     9.8172E+00    18.7763  -0.1864   135.0004
 36      0.0000     0.0000E+00    0.0000E+00    4.000000E+07  0.05000  3.198E-03    0   0.7618   age104_m72            0.0000     1.2505E+01    21.3409  -0.5867   139.0305
 37      0.0000     0.0000E+00    0.0000E+00    1.015200E+08  0.05000  1.716E-03    0   0.7092   age116_m72            0.0000     1.7888E+01    24.9814  -0.7563   140.5628
 38      0.0000     0.0000E+00    0.0000E+00    2.861200E+08  0.05000  7.047E-04    0   0.6618   age125_m72            0.0000     2.3732E+01    26.5890  -1.0000   135.2895
 39      0.0000     0.0000E+00    0.0000E+00    6.405400E+08  0.05000  2.633E-04    0   0.6253   age132_m72            0.0000     2.8301E+01    28.7381  -1.0000   117.5078
 40      0.0000     0.0000E+00    0.0000E+00    9.047900E+08  0.05000  1.484E-04    0   0.6088   age135_m72            0.0000     3.2784E+01    31.9477  -1.0000   101.0294
 41      0.0000     0.0000E+00    0.0000E+00    1.434000E+09  0.05000  7.827E-05    0   0.5847   age139_m72            0.0000     3.8962E+01    35.7596  -1.0000    88.4458
 42      0.0000     0.0000E+00    0.0000E+00    2.500000E+09  0.05000  3.759E-05    0   0.5583   age150_m72            0.0000     4.4686E+01    38.6519  -1.0000    80.3696
 43      0.0000     0.0000E+00    0.0000E+00    5.000000E+09  0.05000  1.548E-05    0   0.5320   age161_m72            0.0000     5.0877E+01    41.3652  -1.0000    71.6425
 44      0.0000     0.0000E+00    0.0000E+00    1.100000E+10  0.05000  6.532E-06    0   0.5070   age185_m72            0.0000     5.7125E+01    43.7500  -1.0000    63.5029
 45     27.3126     9.9833E+01    9.9668E+01    1.300000E+10  0.05000  5.316E-06    0   0.5018   age193_m72            0.0000     5.9160E+01    44.4561  -1.0000    61.1350


## Synthesis Results - Average & Chains ##

# j      x_j: min, <> & last-chain-values for 1 ...  7 chains
  1     95.5847     79.0283     81.1321     82.1292     82.6509     79.9116     81.9999     79.6804     79.3446
  2      0.0000      0.0073      0.0000      0.0000      0.0000      0.0000      0.0000      0.0000      0.0000
  3      0.0000      0.0236      0.0000      0.1188      0.0000      0.0000      0.0000      0.0000      0.0000
  4      0.0000      0.0141      0.0000      0.0000      0.0000      0.0000      0.0000      0.0000      0.0000
  5      0.0000      0.0084      0.0000      0.0000      0.0000      0.0000      0.0000      0.0000      0.0000
  6      0.0000      0.0069      0.0000      0.0000      0.0000      0.0000      0.0000      0.0000      0.0000
  7      0.0000      0.0015      0.0000      0.0000      0.0000      0.0000      0.0000      0.0000      0.0000
  8      0.0000      0.0064      0.0000      0.0000      0.0000      0.0000      0.0000      0.0000      0.0000
  9      0.0000      0.0043      0.0000      0.0000      0.0000      0.0000      0.0000      0.0000      0.0000
 10      0.0000      0.0087      0.0248      0.0000      0.0000      0.0000      0.0000      0.0000      0.0000
 11      0.0000      0.0114      0.0000      0.0000      0.0000      0.0000      0.0000      0.0000      0.0000
 12      0.0000      0.0098      0.0000      0.0000      0.0000      0.0000      0.0000      0.0208      0.0000
 13      0.0000      0.0094      0.0000      0.0000      0.0000      0.0000      0.0000      0.0000      0.0000
 14      0.0000      0.0129      0.0000      0.0000      0.0000      0.0000      0.0000      0.0000      0.0000
 15      0.0000      0.0343      0.0000      0.0000      0.0000      0.0000      0.0000      0.0000      0.0000
 16      0.0000     16.2602     14.9449     13.5683     13.2260     15.7651     12.9463     16.6911     16.7954
 17      0.0000      0.0964      0.0000      0.0000      0.0000      0.0398      0.0000      0.0000      0.0000
 18      0.0000      0.0097      0.0000      0.0000      0.0000      0.0000      0.0000      0.0000      0.0000
 19      0.0000      0.0873      0.0000      0.0000      0.0582      0.0000      0.0000      0.0000      0.0000
 20      0.0000      0.0068      0.0000      0.0000      0.0000      0.0000      0.0000      0.0000      0.0000
 21      0.0000      0.0063      0.0000      0.0000      0.0000      0.0000      0.0000      0.0000      0.0000
 22      0.0000      0.0034      0.0000      0.0000      0.0000      0.0000      0.0000      0.0000      0.0000
 23      0.0000      0.0024      0.0000      0.0000      0.0000      0.0000      0.0000      0.0000      0.0000
 24      0.0000      0.0075      0.0000      0.0000      0.0000      0.0000      0.0000      0.0000      0.0000
 25      0.0000      0.0046      0.0000      0.0000      0.0000      0.0000      0.0000      0.0000      0.0000
 26      0.0000      0.0145      0.0000      0.0000      0.0000      0.0000      0.0000      0.0000      0.0000
 27      0.0000      0.0373      0.0000      0.0000      0.0000      0.0000      0.0000      0.0000      0.0000
 28      0.0000      0.0911      0.0000      0.0000      0.0400      0.0000      0.0000      0.0000      0.0000
 29      0.0000      0.4932      0.2298      0.0000      0.0000      0.0000      0.0000      0.0000      0.0000
 30      0.0000      0.2963      0.0000      0.0000      0.0000      0.0000      0.0000      0.0078      0.0000
 31      0.0000      0.4478      0.0000      0.0000      0.0000      0.5656      0.8305      0.0000      0.0000
 32      0.0000      0.0225      0.0000      0.0000      0.0000      0.0000      0.0000      0.0000      0.0000
 33      0.0000      0.0142      0.0000      0.0000      0.0000      0.0000      0.0000      0.0000      0.0000
 34      0.0000      0.0438      0.0000      0.0000      0.0000      0.0000      0.0000      0.0000      0.0000
 35      0.0000      0.0102      0.0000      0.0000      0.0000      0.0000      0.0000      0.0000      0.0000
 36      0.0000      0.0117      0.0000      0.0386      0.0000      0.0014      0.0000      0.0000      0.0000
 37      0.0000      0.0053      0.0000      0.0000      0.0000      0.0000      0.0000      0.0031      0.0000
 38      0.0000      0.0015      0.0000      0.0000      0.0000      0.0000      0.0000      0.0000      0.0000
 39      0.0000      0.0150      0.0000      0.0000      0.0000      0.0000      0.0000      0.0000      0.0000
 40      0.0000      0.0084      0.0000      0.0000      0.0000      0.0000      0.0000      0.0000      0.0000
 41      0.0000      0.0137      0.0000      0.0000      0.0000      0.0000      0.0000      0.0000      0.0000
 42      0.0000      0.1150      0.0000      0.0823      0.0000      0.0000      0.0000      0.0000      0.0000
 43      0.0000      0.2409      0.0898      0.0000      0.0000      0.1145      0.0000      0.0000      0.0000
 44      0.0000      1.0646      0.9722      1.0392      0.0000      1.2404      0.0000      2.0178      1.7113
 45     27.3126     24.9332     25.8256     26.1281     27.0861     25.9350     27.2910     25.0948     25.5316

# j      m_j: min, <> & last-chain-values for 1 ...  7 chains
  1  3.3170E-01  2.8433E-01  2.8736E-01  2.8840E-01  2.8917E-01  2.8061E-01  2.8485E-01  2.8227E-01  2.7922E-01
  2  0.0000E+00  7.1567E-06  0.0000E+00  0.0000E+00  0.0000E+00  0.0000E+00  0.0000E+00  0.0000E+00  0.0000E+00
  3  0.0000E+00  3.5366E-05  0.0000E+00  1.7397E-04  0.0000E+00  0.0000E+00  0.0000E+00  0.0000E+00  0.0000E+00
  4  0.0000E+00  3.9366E-05  0.0000E+00  0.0000E+00  0.0000E+00  0.0000E+00  0.0000E+00  0.0000E+00  0.0000E+00
  5  0.0000E+00  5.4129E-05  0.0000E+00  0.0000E+00  0.0000E+00  0.0000E+00  0.0000E+00  0.0000E+00  0.0000E+00
  6  0.0000E+00  6.1779E-05  0.0000E+00  0.0000E+00  0.0000E+00  0.0000E+00  0.0000E+00  0.0000E+00  0.0000E+00
  7  0.0000E+00  1.8601E-05  0.0000E+00  0.0000E+00  0.0000E+00  0.0000E+00  0.0000E+00  0.0000E+00  0.0000E+00
  8  0.0000E+00  1.5803E-04  0.0000E+00  0.0000E+00  0.0000E+00  0.0000E+00  0.0000E+00  0.0000E+00  0.0000E+00
  9  0.0000E+00  2.1149E-04  0.0000E+00  0.0000E+00  0.0000E+00  0.0000E+00  0.0000E+00  0.0000E+00  0.0000E+00
 10  0.0000E+00  5.9450E-04  1.6690E-03  0.0000E+00  0.0000E+00  0.0000E+00  0.0000E+00  0.0000E+00  0.0000E+00
 11  0.0000E+00  1.3704E-03  0.0000E+00  0.0000E+00  0.0000E+00  0.0000E+00  0.0000E+00  0.0000E+00  0.0000E+00
 12  0.0000E+00  2.1788E-03  0.0000E+00  0.0000E+00  0.0000E+00  0.0000E+00  0.0000E+00  4.5745E-03  0.0000E+00
 13  0.0000E+00  4.1653E-03  0.0000E+00  0.0000E+00  0.0000E+00  0.0000E+00  0.0000E+00  0.0000E+00  0.0000E+00
 14  0.0000E+00  1.1662E-02  0.0000E+00  0.0000E+00  0.0000E+00  0.0000E+00  0.0000E+00  0.0000E+00  0.0000E+00
 15  0.0000E+00  3.6006E-02  0.0000E+00  0.0000E+00  0.0000E+00  0.0000E+00  0.0000E+00  0.0000E+00  0.0000E+00
 16  0.0000E+00  3.2765E-02  2.9647E-02  2.6686E-02  2.5917E-02  3.1006E-02  2.5188E-02  3.3117E-02  3.3103E-02
 17  0.0000E+00  1.0101E-04  0.0000E+00  0.0000E+00  0.0000E+00  4.0725E-05  0.0000E+00  0.0000E+00  0.0000E+00
 18  0.0000E+00  1.1293E-05  0.0000E+00  0.0000E+00  0.0000E+00  0.0000E+00  0.0000E+00  0.0000E+00  0.0000E+00
 19  0.0000E+00  3.0285E-04  0.0000E+00  0.0000E+00  1.9625E-04  0.0000E+00  0.0000E+00  0.0000E+00  0.0000E+00
 20  0.0000E+00  5.2612E-05  0.0000E+00  0.0000E+00  0.0000E+00  0.0000E+00  0.0000E+00  0.0000E+00  0.0000E+00
 21  0.0000E+00  5.8692E-05  0.0000E+00  0.0000E+00  0.0000E+00  0.0000E+00  0.0000E+00  0.0000E+00  0.0000E+00
 22  0.0000E+00  5.2071E-05  0.0000E+00  0.0000E+00  0.0000E+00  0.0000E+00  0.0000E+00  0.0000E+00  0.0000E+00
 23  0.0000E+00  7.1773E-05  0.0000E+00  0.0000E+00  0.0000E+00  0.0000E+00  0.0000E+00  0.0000E+00  0.0000E+00
 24  0.0000E+00  5.1788E-04  0.0000E+00  0.0000E+00  0.0000E+00  0.0000E+00  0.0000E+00  0.0000E+00  0.0000E+00
 25  0.0000E+00  4.9094E-04  0.0000E+00  0.0000E+00  0.0000E+00  0.0000E+00  0.0000E+00  0.0000E+00  0.0000E+00
 26  0.0000E+00  2.9281E-03  0.0000E+00  0.0000E+00  0.0000E+00  0.0000E+00  0.0000E+00  0.0000E+00  0.0000E+00
 27  0.0000E+00  1.5248E-02  0.0000E+00  0.0000E+00  0.0000E+00  0.0000E+00  0.0000E+00  0.0000E+00  0.0000E+00
 28  0.0000E+00  7.5300E-02  0.0000E+00  0.0000E+00  3.2113E-02  0.0000E+00  0.0000E+00  0.0000E+00  0.0000E+00
 29  0.0000E+00  8.6284E-01  3.9573E-01  0.0000E+00  0.0000E+00  0.0000E+00  0.0000E+00  0.0000E+00  0.0000E+00
 30  0.0000E+00  6.1847E-01  0.0000E+00  0.0000E+00  0.0000E+00  0.0000E+00  0.0000E+00  1.6022E-02  0.0000E+00
 31  0.0000E+00  6.7693E-04  0.0000E+00  0.0000E+00  0.0000E+00  8.3445E-04  1.2120E-03  0.0000E+00  0.0000E+00
 32  0.0000E+00  1.7915E-05  0.0000E+00  0.0000E+00  0.0000E+00  0.0000E+00  0.0000E+00  0.0000E+00  0.0000E+00
 33  0.0000E+00  1.6750E-05  0.0000E+00  0.0000E+00  0.0000E+00  0.0000E+00  0.0000E+00  0.0000E+00  0.0000E+00
 34  0.0000E+00  1.6720E-04  0.0000E+00  0.0000E+00  0.0000E+00  0.0000E+00  0.0000E+00  0.0000E+00  0.0000E+00
 35  0.0000E+00  7.6415E-05  0.0000E+00  0.0000E+00  0.0000E+00  0.0000E+00  0.0000E+00  0.0000E+00  0.0000E+00
 36  0.0000E+00  1.1153E-04  0.0000E+00  3.5967E-04  0.0000E+00  1.3283E-05  0.0000E+00  0.0000E+00  0.0000E+00
 37  0.0000E+00  8.7740E-05  0.0000E+00  0.0000E+00  0.0000E+00  0.0000E+00  0.0000E+00  5.0451E-05  0.0000E+00
 38  0.0000E+00  5.8234E-05  0.0000E+00  0.0000E+00  0.0000E+00  0.0000E+00  0.0000E+00  0.0000E+00  0.0000E+00
 39  0.0000E+00  1.4274E-03  0.0000E+00  0.0000E+00  0.0000E+00  0.0000E+00  0.0000E+00  0.0000E+00  0.0000E+00
 40  0.0000E+00  1.3874E-03  0.0000E+00  0.0000E+00  0.0000E+00  0.0000E+00  0.0000E+00  0.0000E+00  0.0000E+00
 41  0.0000E+00  4.1066E-03  0.0000E+00  0.0000E+00  0.0000E+00  0.0000E+00  0.0000E+00  0.0000E+00  0.0000E+00
 42  0.0000E+00  6.8486E-02  0.0000E+00  4.7791E-02  0.0000E+00  0.0000E+00  0.0000E+00  0.0000E+00  0.0000E+00
 43  0.0000E+00  3.3183E-01  1.2175E-01  0.0000E+00  0.0000E+00  1.5395E-01  0.0000E+00  0.0000E+00  0.0000E+00
 44  0.0000E+00  3.3119E+00  2.9773E+00  3.1554E+00  0.0000E+00  3.7664E+00  0.0000E+00  6.1809E+00  5.2071E+00
 45  9.9668E+01  9.4330E+01  9.6187E+01  9.6481E+01  9.9653E+01  9.5767E+01  9.9689E+01  9.3483E+01  9.4481E+01

# AV, chi2 & Mass for <> & i_chain = 1 ...  7 solutions
AV      -1.0000     -0.9956     -1.0000     -1.0000     -1.0000     -1.0000     -1.0000     -1.0000     -1.0000
chi2 2.1289E+00  2.1607E+00  2.1438E+00  2.1427E+00  2.1390E+00  2.1452E+00  2.1386E+00  2.1454E+00  2.1431E+00
Mass 4.3521E-13  4.2227E-13  4.2641E-13  4.3009E-13  4.3167E-13  4.3009E-13  4.3477E-13  4.2632E-13  4.2917E-13
 -34.25                                  [v0_min (km/s) before EX0s...]
 290.10                                  [vd_min (km/s) before EX0s...]


## Synthetic spectrum (Best Model) ##l_obs f_obs f_syn wei
 2201    [Nl_obs]
 3100.00    1.87033   2.98600   -1.000
 3101.00    1.84079   2.97935   -1.000
 3102.00    2.56795   2.97299    2.628
 3103.00    2.61374   2.96786    2.632
 3104.00    2.53367   2.96406    2.692
 3105.00    2.76740   2.96100    2.606
 3106.00    2.73467   2.95850    2.646
 3107.00    2.64643   2.95640    2.711
 3108.00    2.33069   2.95454    2.912
 3109.00    2.11317   2.95281   -1.000
 3110.00    2.45723   2.95109    2.880
 3111.00    2.74692   2.94930    2.750
 3112.00    3.14678   2.94732    2.582
 3113.00    3.04949   2.94496    2.643
 3114.00    2.99288   2.94199    2.685
 3115.00    2.66465   2.93807    2.860
 3116.00    2.77864   2.93197    2.815
 3117.00    3.06314   2.92370    2.695
 3118.00    3.05545   2.91410    2.721
 3119.00    2.79853   2.90331    2.860
 3120.00    2.66543   2.89193    2.938
 3121.00    2.50409   2.88038    3.054
 3122.00    2.46878   2.86946    3.091
 3123.00    2.80842   2.86099    2.909
 3124.00    2.85729   2.85512    2.898
 3125.00    2.93186   2.85067    2.878
 3126.00    2.82143   2.84735    2.946
 3127.00    3.06465   2.84482    2.848
 3128.00    2.84564   2.84281    2.973
 3129.00    2.39558   2.84107    3.249
 3130.00    2.63506   2.83941    3.131
 3131.00    2.68916   2.83772    3.117
 3132.00    2.57419   2.83591    3.215
 3133.00    2.64204   2.83386    3.191
 3134.00    3.02569   2.83141    3.006
 3135.00    3.23033   2.82839    2.927
 3136.00    3.15975   2.82397    2.977
 3137.00    3.14372   2.81811    3.011
 3138.00    2.79592   2.81145    3.205
 3139.00    2.36124   2.80407    3.520
 3140.00    2.58735   2.79633    3.384
 3141.00    2.63778   2.78843    3.373
 3142.00    2.44711   2.78095    3.536
 3143.00    2.65538   2.77506    3.423
 3144.00    2.67401   2.77078    3.433
 3145.00    2.52549   2.76741    3.569
 3146.00    2.44342   2.76476    3.647
 3147.00    2.56957   2.76262    3.585
 3148.00    2.76695   2.76082    3.483
 3149.00    2.81562   2.75920    3.483
 3150.00    2.99822   2.75763    3.405
 3151.00    3.19807   2.75602    3.308
 3152.00    2.98436   2.75428    3.433
 3153.00    2.65963   2.75231    3.662
 3154.00    2.79928   2.74995    3.594
 3155.00    2.69643   2.74705    3.678
 3156.00    2.88473   2.74288    3.582
 3157.00    2.76503   2.73732    3.682
 3158.00    2.67562   2.73096    3.762
 3159.00    2.70559   2.72400    3.770
 3160.00    2.51374   2.71671    3.919
 3161.00    2.55839   2.70922    3.894
 3162.00    2.91083   2.70214    3.660
 3163.00    2.53947   2.69659    3.958
 3164.00    2.42154   2.69253    4.047
 3165.00    2.60839   2.68930    3.924
 3166.00    2.79254   2.68677    3.797
 3167.00    2.90589   2.68472    3.744
 3168.00    2.76920   2.68300    3.848
 3169.00    2.60897   2.68146    3.971
 3170.00    2.67906   2.67995    3.947
 3171.00    2.79400   2.67835    3.886
 3172.00    2.68290   2.67653    3.981
 3173.00    2.62856   2.67431    4.031
 3174.00    2.71391   2.67144    3.976
 3175.00    2.82054   2.66768    3.903
 3176.00    2.86573   2.66193    3.888
 3177.00    2.65080   2.65382    4.053
 3178.00    2.81471   2.64433    3.954
 3179.00    2.74907   2.63399    4.011
 3180.00    2.68402   2.62311    4.078
 3181.00    2.70440   2.61185    4.064
 3182.00    2.66627   2.60126    4.116
 3183.00    2.78221   2.59324    4.042
 3184.00    2.75435   2.58757    4.074
 3185.00    2.99034   2.58326    3.926
 3186.00    3.68925   2.58008   -1.000
 3187.00    4.85591   2.57771   -1.000
 3188.00    5.75111   2.57593   -1.000
 3189.00    5.94041   2.57443   -1.000
 3190.00    5.15094   2.57299   -1.000
 3191.00    3.57016   2.57153   -1.000
 3192.00    2.95117   2.56989    4.074
 3193.00    2.72276   2.56795    4.268
 3194.00    2.65901   2.56551    4.336
 3195.00    2.73179   2.56240    4.313
 3196.00    2.64720   2.55787    4.393
 3197.00    2.53888   2.55152    4.507
 3198.00    2.53051   2.54410    4.531
 3199.00    2.63802   2.53612    4.469
 3200.00    2.69818   2.52777    4.459
 3201.00    2.46075   2.51906    4.685
 3202.00    2.42957   2.51087    4.728
 3203.00    2.51656   2.50464    4.657
 3204.00    2.47667   2.50013    4.709
 3205.00    2.54225   2.49663    4.678
 3206.00    2.58321   2.49396    4.676
 3207.00    2.64434   2.49194    4.631
 3208.00    2.95193   2.49036    4.385
 3209.00    2.72841   2.48899    4.550
 3210.00    2.83391   2.48767    4.482
 3211.00    2.79126   2.48633    4.509
 3212.00    2.75109   2.48486    4.540
 3213.00    2.82714   2.48313    4.489
 3214.00    2.81710   2.48102    4.501
 3215.00    2.86178   2.47839    4.449
 3216.00    2.92993   2.47473    4.393
 3217.00    2.97296   2.46962    4.359
 3218.00    2.85116   2.46366    4.466
 3219.00    2.94079   2.45734    4.392
 3220.00    2.87212   2.45074    4.450
 3221.00    2.72394   2.44383    4.574
 3222.00    2.87316   2.43733    4.464
 3223.00    2.94056   2.43236    4.419
 3224.00    2.86739   2.42868    4.478
 3225.00    2.81697   2.42576    4.517
 3226.00    2.89191   2.42347    4.470
 3227.00    2.86937   2.42171    4.509
 3228.00    2.83087   2.42030    4.552
 3229.00    2.70994   2.41905    4.675
 3230.00    2.67220   2.41785    4.727
 3231.00    2.55128   2.41667    4.838
 3232.00    2.77608   2.41546    4.660
 3233.00    2.77839   2.41418    4.679
 3234.00    2.67432   2.41280    4.790
 3235.00    2.52439   2.41128    4.938
 3236.00    2.54500   2.40949    4.927
 3237.00    2.48793   2.40730    4.993
 3238.00    2.57697   2.40486    4.905
 3239.00    2.68264   2.40234    4.797
 3240.00    2.82045   2.39976    4.679
 3241.00    2.94337   2.39708    4.589
 3242.00    2.79487   2.39452    4.699
 3243.00    2.67992   2.39238    4.801
 3244.00    2.76197   2.39060    4.737
 3245.00    2.74547   2.38902    4.754
 3246.00    2.89883   2.38762    4.614
 3247.00    2.89756   2.38637    4.630
 3248.00    2.68155   2.38522    4.801
 3249.00    2.84044   2.38411    4.668
 3250.00    2.81757   2.38300    4.690
 3251.00    2.85638   2.38187    4.662
 3252.00    2.69512   2.38065    4.807
 3253.00    2.78148   2.37924    4.731
 3254.00    2.78980   2.37758    4.757
 3255.00    2.74915   2.37559    4.806
 3256.00    2.75700   2.37301    4.803
 3257.00    2.79188   2.36946    4.796
 3258.00    2.89914   2.36532    4.730
 3259.00    2.92703   2.36105    4.731
 3260.00    2.86191   2.35661    4.809
 3261.00    2.84308   2.35193    4.860
 3262.00    2.64178   2.34751    5.066
 3263.00    2.66766   2.34410    5.063
 3264.00    2.77563   2.34147    4.989
 3265.00    2.84165   2.33931    4.947
 3266.00    2.79812   2.33754    5.011
 3267.00    2.80211   2.33613    5.023
 3268.00    2.57402   2.33497    5.217
 3269.00    2.82344   2.33389    4.989
 3270.00    2.94487   2.33282    4.866
 3271.00    2.71151   2.33175    5.051
 3272.00    2.75076   2.33053    5.077
 3273.00    2.81003   2.32904    5.067
 3274.00    2.93485   2.32719    4.965
 3275.00    3.03861   2.32488    4.887
 3276.00    2.98637   2.32179    4.927
 3277.00    2.94945   2.31731    4.968
 3278.00    2.96236   2.31197    4.973
 3279.00    2.76021   2.30651    5.189
 3280.00    2.69665   2.30083    5.264
 3281.00    2.72611   2.29476    5.232
 3282.00    2.79192   2.28907    5.162
 3283.00    2.80802   2.28482    5.177
 3284.00    2.84089   2.28160    5.179
 3285.00    2.92231   2.27904    5.132
 3286.00    2.88088   2.27702    5.197
 3287.00    2.96170   2.27552    5.154
 3288.00    2.93729   2.27438    5.192
 3289.00    2.93684   2.27333    5.208
 3290.00    2.97216   2.27231   -1.000
 3291.00    2.87694   2.27126    5.296
 3292.00    2.83695   2.27002    5.348
 3293.00    2.93260   2.26838    5.294
 3294.00    2.84884   2.26620    5.361
 3295.00    2.92915   2.26337    5.298
 3296.00    2.95382   2.25951    5.283
 3297.00    2.78999   2.25361    5.454
 3298.00    2.67091   2.24646    5.573
 3299.00    2.74993   2.23922    5.497
 3300.00    2.83540   2.23169    5.438
 3301.00    2.90984   2.22353   -1.000
 3302.00    2.77119   2.21594    5.515
 3303.00    2.68000   2.21041    5.596
 3304.00    2.82124   2.20630    5.460
 3305.00    2.89096   2.20309   -1.000
 3306.00    2.78754   2.20062    5.478
 3307.00    2.83513   2.19889    5.437
 3308.00    2.85666   2.19759    5.425
 3309.00    2.96882   2.19621   -1.000
 3310.00    2.94685   2.19465   -1.000
 3311.00    2.77818   2.19283    5.519
 3312.00    2.83161   2.19056    5.480
 3313.00    2.98722   2.18728   -1.000
 3314.00    3.02116   2.18338   -1.000
 3315.00    2.90108   2.17953   -1.000
 3316.00    2.94269   2.17561   -1.000
 3317.00    2.90270   2.17140   -1.000
 3318.00    2.85014   2.16747   -1.000
 3319.00    2.92095   2.16455   -1.000
 3320.00    2.79882   2.16255    5.614
 3321.00    2.78596   2.16019    5.634
 3322.00    2.95967   2.15788   -1.000
 3323.00    2.97491   2.15497   -1.000
 3324.00    2.89186   2.15175   -1.000
 3325.00    2.92193   2.14741   -1.000
 3326.00    2.87393   2.14283   -1.000
 3327.00    2.90190   2.13787   -1.000
 3328.00    2.93835   2.13234   -1.000
 3329.00    2.89574   2.12635   -1.000
 3330.00    2.98154   2.11978   -1.000
 3331.00    2.84318   2.11275   -1.000
 3332.00    2.77117   2.10468   -1.000
 3333.00    2.88702   2.09575   -1.000
 3334.00    2.95410   2.08675   -1.000
 3335.00    2.97439   2.07830   -1.000
 3336.00    3.08207   2.07104   -1.000
 3337.00    2.90436   2.06531   -1.000
 3338.00    2.86842   2.06250   -1.000
 3339.00    2.84161   2.06240   -1.000
 3340.00    2.87305   2.06545   -1.000
 3341.00    2.80527   2.07013   -1.000
 3342.00    2.75430   2.07617   -1.000
 3343.00    2.83553   2.08243   -1.000
 3344.00    2.87039   2.08792   -1.000
 3345.00    2.81038   2.09015   -1.000
 3346.00    2.92291   2.08849   -1.000
 3347.00    2.92145   2.08227   -1.000
 3348.00    2.91737   2.07452   -1.000
 3349.00    2.87158   2.06506   -1.000
 3350.00    2.95333   2.05455   -1.000
 3351.00    2.98589   2.04341   -1.000
 3352.00    2.95729   2.03494   -1.000
 3353.00    3.02291   2.02913   -1.000
 3354.00    3.12093   2.02410   -1.000
 3355.00    3.09582   2.01921   -1.000
 3356.00    2.93091   2.01439   -1.000
 3357.00    2.88127   2.01086   -1.000
 3358.00    2.90135   2.00735   -1.000
 3359.00    2.90302   2.00381   -1.000
 3360.00    2.84157   1.99971   -1.000
 3361.00    2.93670   1.99599   -1.000
 3362.00    3.09141   1.99159   -1.000
 3363.00    3.01398   1.98638   -1.000
 3364.00    2.87605   1.98025   -1.000
 3365.00    2.88572   1.97339   -1.000
 3366.00    2.95921   1.96628   -1.000
 3367.00    2.88238   1.95992   -1.000
 3368.00    2.89129   1.95441   -1.000
 3369.00    2.98150   1.94993   -1.000
 3370.00    2.98370   1.94778   -1.000
 3371.00    2.82733   1.94806   -1.000
 3372.00    2.93377   1.94977   -1.000
 3373.00    3.05714   1.95161   -1.000
 3374.00    2.91749   1.95342   -1.000
 3375.00    2.83050   1.95577   -1.000
 3376.00    2.85576   1.95832   -1.000
 3377.00    2.91426   1.96060   -1.000
 3378.00    2.75465   1.96226   -1.000
 3379.00    2.63274   1.96442   -1.000
 3380.00    2.77989   1.96746   -1.000
 3381.00    2.87042   1.97107   -1.000
 3382.00    2.86144   1.97539   -1.000
 3383.00    2.88089   1.97947   -1.000
 3384.00    2.92595   1.98285   -1.000
 3385.00    2.94006   1.98510   -1.000
 3386.00    2.82317   1.98634   -1.000
 3387.00    2.83594   1.98674   -1.000
 3388.00    2.90565   1.98600   -1.000
 3389.00    2.98705   1.98484   -1.000
 3390.00    2.97788   1.98325   -1.000
 3391.00    2.87295   1.98265   -1.000
 3392.00    2.83812   1.98177   -1.000
 3393.00    2.84526   1.98025   -1.000
 3394.00    2.94008   1.97784   -1.000
 3395.00    3.05360   1.97492   -1.000
 3396.00    3.02337   1.96936   -1.000
 3397.00    2.92746   1.96213   -1.000
 3398.00    2.94235   1.95439   -1.000
 3399.00    2.89907   1.94576   -1.000
 3400.00    2.85230   1.93619   -1.000
 3401.00    2.84876   1.92787   -1.000
 3402.00    2.87811   1.92117   -1.000
 3403.00    2.80237   1.91457   -1.000
 3404.00    2.83010   1.90873   -1.000
 3405.00    2.99336   1.90453   -1.000
 3406.00    3.01068   1.90144   -1.000
 3407.00    3.11726   1.89874   -1.000
 3408.00    3.16576   1.89592   -1.000
 3409.00    3.04795   1.89393   -1.000
 3410.00    2.98715   1.89285   -1.000
 3411.00    3.05763   1.89251   -1.000
 3412.00    2.90721   1.89234   -1.000
 3413.00    2.82078   1.89341   -1.000
 3414.00    2.84431   1.89616   -1.000
 3415.00    2.88012   1.89975   -1.000
 3416.00    2.97145   1.90388   -1.000
 3417.00    2.97446   1.90784   -1.000
 3418.00    2.93736   1.91162   -1.000
 3419.00    2.99695   1.91410   -1.000
 3420.00    3.06240   1.91567   -1.000
 3421.00    2.90117   1.91616   -1.000
 3422.00    2.89038   1.91585   -1.000
 3423.00    2.97912   1.91471   -1.000
 3424.00    2.99136   1.91367   -1.000
 3425.00    2.78487   1.91301   -1.000
 3426.00    2.71922   1.91260   -1.000
 3427.00    2.72102   1.91150   -1.000
 3428.00    2.78485   1.91022   -1.000
 3429.00    2.87096   1.90871   -1.000
 3430.00    2.87956   1.90669   -1.000
 3431.00    2.92042   1.90342   -1.000
 3432.00    2.87946   1.89968   -1.000
 3433.00    2.85194   1.89493   -1.000
 3434.00    2.89386   1.88917   -1.000
 3435.00    2.87125   1.88232   -1.000
 3436.00    2.78632   1.87441   -1.000
 3437.00    2.80178   1.86502   -1.000
 3438.00    2.90420   1.85512   -1.000
 3439.00    2.86592   1.84576   -1.000
 3440.00    2.84746   1.83794   -1.000
 3441.00    2.93724   1.83175   -1.000
 3442.00    2.93322   1.82741   -1.000
 3443.00    2.86120   1.82546   -1.000
 3444.00    2.77224   1.82555   -1.000
 3445.00    2.76750   1.82684   -1.000
 3446.00    2.87058   1.82809   -1.000
 3447.00    3.07759   1.82813   -1.000
 3448.00    3.22396   1.82696   -1.000
 3449.00    3.17743   1.82523   -1.000
 3450.00    3.06045   1.82249   -1.000
 3451.00    2.95313   1.81752   -1.000
 3452.00    2.81485   1.81208   -1.000
 3453.00    2.75726   1.80699   -1.000
 3454.00    2.73347   1.80221   -1.000
 3455.00    2.69063   1.79722   -1.000
 3456.00    2.62158   1.79303   -1.000
 3457.00    2.75356   1.78971   -1.000
 3458.00    2.90770   1.78711   -1.000
 3459.00    2.96688   1.78563   -1.000
 3460.00    2.91991   1.78723   -1.000
 3461.00    2.89147   1.78880   -1.000
 3462.00    2.85141   1.79088   -1.000
 3463.00    2.86527   1.79433   -1.000
 3464.00    2.81501   1.79899   -1.000
 3465.00    2.86436   1.80027   -1.000
 3466.00    2.95806   1.80126   -1.000
 3467.00    2.86375   1.80203   -1.000
 3468.00    2.80128   1.80053   -1.000
 3469.00    2.91110   1.79659   -1.000
 3470.00    2.97233   1.79231   -1.000
 3471.00    2.93879   1.78681   -1.000
 3472.00    2.91088   1.77870   -1.000
 3473.00    2.95836   1.77058   -1.000
 3474.00    2.94947   1.76283   -1.000
 3475.00    3.04879   1.75470   -1.000
 3476.00    2.93354   1.74685   -1.000
 3477.00    2.82276   1.74122   -1.000
 3478.00    2.92971   1.73734   -1.000
 3479.00    2.92153   1.73445   -1.000
 3480.00    2.91476   1.73279   -1.000
 3481.00    2.84839   1.73373   -1.000
 3482.00    2.81827   1.73710   -1.000
 3483.00    2.87222   1.74047   -1.000
 3484.00    2.87736   1.74396   -1.000
 3485.00    2.89380   1.74908   -1.000
 3486.00    2.90659   1.75486   -1.000
 3487.00    2.92549   1.75821   -1.000
 3488.00    2.90334   1.76044   -1.000
 3489.00    2.92496   1.76291   -1.000
 3490.00    2.92297   1.76403   -1.000
 3491.00    2.89899   1.76345   -1.000
 3492.00    2.87474   1.76292   -1.000
 3493.00    2.90260   1.76272   -1.000
 3494.00    2.84278   1.76173   -1.000
 3495.00    2.88686   1.76087   -1.000
 3496.00    2.87117   1.76020   -1.000
 3497.00    3.00638   1.75873   -1.000
 3498.00    3.05261   1.75666   -1.000
 3499.00    3.08294   1.75500   -1.000
 3500.00    3.03241   1.75332    0.000
 3501.00    2.84478   1.74977    0.000
 3502.00    2.82534   1.74488    0.000
 3503.00    2.78657   1.74070    0.000
 3504.00    2.84923   1.73673    0.000
 3505.00    2.83474   1.73163    0.000
 3506.00    3.04874   1.72568    0.000
 3507.00    2.90313   1.72060    0.000
 3508.00    2.82099   1.71620    0.000
 3509.00    2.78024   1.71188    0.000
 3510.00    2.83262   1.70746    0.000
 3511.00    2.98131   1.70428    0.000
 3512.00    3.03892   1.70236    0.000
 3513.00    2.96639   1.70152    0.000
 3514.00    2.95985   1.70102    0.000
 3515.00    2.93463   1.70130    0.000
 3516.00    2.83750   1.70155    0.000
 3517.00    2.83307   1.70136    0.000
 3518.00    2.80796   1.69940    0.000
 3519.00    2.84463   1.69636    0.000
 3520.00    2.82688   1.69235    0.000
 3521.00    2.78296   1.68822    0.000
 3522.00    2.78896   1.68367    0.000
 3523.00    2.89333   1.68020    0.000
 3524.00    2.94020   1.67856    0.000
 3525.00    2.90279   1.67912    0.000
 3526.00    2.89560   1.68050    0.000
 3527.00    3.01078   1.68362    0.000
 3528.00    3.08138   1.68754    0.000
 3529.00    3.19997   1.69187    0.000
 3530.00    3.21103   1.69535    0.000
 3531.00    3.19333   1.69756    0.000
 3532.00    3.16349   1.69899    0.000
 3533.00    3.00105   1.69990    0.000
 3534.00    2.97871   1.69926    0.000
 3535.00    2.95681   1.69800    0.000
 3536.00    2.98048   1.69716    0.000
 3537.00    2.96464   1.69641    0.000
 3538.00    2.86329   1.69520    0.000
 3539.00    2.84277   1.69471    0.000
 3540.00    2.91155   1.69423    0.000
 3541.00    2.96567   1.69430    0.000
 3542.00    2.96852   1.69426    0.000
 3543.00    3.01970   1.69368    0.000
 3544.00    2.96694   1.69293    0.000
 3545.00    2.92327   1.69247    0.000
 3546.00    2.87580   1.69139    0.000
 3547.00    2.97402   1.68907    0.000
 3548.00    3.03836   1.68668    0.000
 3549.00    2.90596   1.68421    0.000
 3550.00    2.84944   1.68122    0.000
 3551.00    2.82781   1.67765    0.000
 3552.00    3.02140   1.67424    0.000
 3553.00    3.16362   1.67130    0.000
 3554.00    3.15164   1.66846    0.000
 3555.00    3.17248   1.66602    0.000
 3556.00    3.16258   1.66405    0.000
 3557.00    3.08360   1.66199    0.000
 3558.00    2.98396   1.66038    0.000
 3559.00    2.94846   1.65876    0.000
 3560.00    2.96226   1.65642    0.000
 3561.00    2.88085   1.65266    0.000
 3562.00    2.86460   1.64845    0.000
 3563.00    2.81135   1.64378    0.000
 3564.00    2.77720   1.63732    0.000
 3565.00    2.83685   1.62958    0.000
 3566.00    2.90724   1.62227    0.000
 3567.00    2.99342   1.61499    0.000
 3568.00    3.04029   1.60658    0.000
 3569.00    2.88351   1.59942    0.000
 3570.00    2.85984   1.59328    0.000
 3571.00    2.91905   1.58719    0.000
 3572.00    2.82875   1.58114    0.000
 3573.00    2.76974   1.57725    0.000
 3574.00    2.90090   1.57313    0.000
 3575.00    2.86595   1.56812    0.000
 3576.00    2.83167   1.56313    0.000
 3577.00    2.88018   1.55833    0.000
 3578.00    2.98579   1.55302    0.000
 3579.00    2.94194   1.54780    0.000
 3580.00    2.87057   1.54292    0.000
 3581.00    2.91704   1.53936    0.000
 3582.00    2.97186   1.53681    0.000
 3583.00    2.94159   1.53524    0.000
 3584.00    2.95505   1.53503    0.000
 3585.00    3.11822   1.53608    0.000
 3586.00    3.17305   1.53785    0.000
 3587.00    3.17251   1.54109    0.000
 3588.00    3.27317   1.54539    0.000
 3589.00    3.13898   1.54960    0.000
 3590.00    2.98304   1.55434    0.000
 3591.00    2.92107   1.55996    0.000
 3592.00    2.91259   1.56535    0.000
 3593.00    2.90716   1.56998    0.000
 3594.00    2.91452   1.57506    0.000
 3595.00    2.98993   1.57974    0.000
 3596.00    3.03185   1.58370    0.000
 3597.00    2.91818   1.58687    0.000
 3598.00    2.96820   1.58847    0.000
 3599.00    3.06391   1.58825    0.000
 3600.00    2.95692   1.58657    0.000
 3601.00    2.98561   1.58320    0.000
 3602.00    3.07220   1.57786    0.000
 3603.00    3.02179   1.57249    0.000
 3604.00    3.04060   1.56668    0.000
 3605.00    2.97438   1.56120    0.000
 3606.00    2.95280   1.55699    0.000
 3607.00    2.94832   1.55412    0.000
 3608.00    3.01678   1.55202    0.000
 3609.00    3.02781   1.55086    0.000
 3610.00    3.00954   1.55108    0.000
 3611.00    3.14155   1.55145    0.000
 3612.00    3.31803   1.55132    0.000
 3613.00    3.41917   1.55185    0.000
 3614.00    3.44081   1.55170    0.000
 3615.00    3.32143   1.55080    0.000
 3616.00    3.01804   1.55064    0.000
 3617.00    3.03382   1.55124    0.000
 3618.00    3.04573   1.55209    0.000
 3619.00    2.94548   1.55441    0.000
 3620.00    3.02001   1.55937    0.000
 3621.00    2.94443   1.56419    0.000
 3622.00    2.91936   1.56975    0.000
 3623.00    2.98967   1.57587    0.000
 3624.00    3.04516   1.58033    0.000
 3625.00    3.07171   1.58245    0.000
 3626.00    2.98436   1.58267    0.000
 3627.00    2.94064   1.58080    0.000
 3628.00    2.94060   1.57677    0.000
 3629.00    2.90644   1.57139    0.000
 3630.00    2.89083   1.56507    0.000
 3631.00    2.88093   1.55919    0.000
 3632.00    3.06857   1.55534    0.000
 3633.00    3.32132   1.55181    0.000
 3634.00    3.39101   1.54916    0.000
 3635.00    3.34698   1.54914    0.000
 3636.00    3.06351   1.54949    0.000
 3637.00    2.93465   1.54845    0.000
 3638.00    2.91719   1.54832    0.000
 3639.00    2.94915   1.54790    0.000
 3640.00    2.88223   1.54535    0.000
 3641.00    2.89521   1.54143    0.000
 3642.00    2.97963   1.53668    0.000
 3643.00    2.93476   1.53119    0.000
 3644.00    2.98973   1.52524    0.000
 3645.00    2.97340   1.51976    0.000
 3646.00    2.96762   1.51618    0.000
 3647.00    2.80873   1.51439    0.000
 3648.00    2.64473   1.51416    0.000
 3649.00    2.48866   1.51610    0.000
 3650.00    2.43494   1.51975    0.000
 3651.00    2.34215   1.52420    0.000
 3652.00    2.29379   1.52896    0.000
 3653.00    2.24373   1.53430    0.000
 3654.00    2.21381   1.53877    0.000
 3655.00    2.17651   1.54254    0.000
 3656.00    2.14607   1.54564    0.000
 3657.00    2.10850   1.54754    0.000
 3658.00    2.11780   1.54823    0.000
 3659.00    2.11123   1.54754    0.000
 3660.00    2.07612   1.54588    0.000
 3661.00    2.09311   1.54336    0.000
 3662.00    2.12089   1.54008    0.000
 3663.00    2.08814   1.53619    0.000
 3664.00    2.08862   1.53276    0.000
 3665.00    2.17609   1.52913    0.000
 3666.00    2.16866   1.52560    0.000
 3667.00    2.14187   1.52291    0.000
 3668.00    2.19950   1.52048    0.000
 3669.00    2.13059   1.51823    0.000
 3670.00    2.10593   1.51624    0.000
 3671.00    2.18159   1.51431    0.000
 3672.00    2.17032   1.51186    0.000
 3673.00    2.00375   1.50852    0.000
 3674.00    2.14235   1.50439    0.000
 3675.00    2.15563   1.49951    0.000
 3676.00    1.97405   1.49422    0.000
 3677.00    2.09035   1.48911    0.000
 3678.00    2.11497   1.48383    0.000
 3679.00    2.01519   1.47947    0.000
 3680.00    2.11879   1.47583    0.000
 3681.00    2.13790   1.47252    0.000
 3682.00    1.92480   1.46992    0.000
 3683.00    2.02359   1.46793    0.000
 3684.00    2.03890   1.46599    0.000
 3685.00    1.95743   1.46452    0.000
 3686.00    2.02534   1.46427    0.000
 3687.00    2.14402   1.46449    0.000
 3688.00    2.04994   1.46528    0.000
 3689.00    1.83008   1.46676    0.000
 3690.00    1.99702   1.46869    0.000
 3691.00    2.18821   1.46987    0.000
 3692.00    2.29291   1.47042    0.000
 3693.00    2.04218   1.47070    0.000
 3694.00    1.70296   1.47050    0.000
 3695.00    2.00849   1.46932    0.000
 3696.00    2.29194   1.46772    0.000
 3697.00    2.52812   1.46554    0.000
 3698.00    2.52393   1.46162    0.000
 3699.00    1.98927   1.45571    0.000
 3700.00    1.65722   1.44801    0.000
 3701.00    1.94856   1.43864    0.000
 3702.00    2.53681   1.42763    0.000
 3703.00    2.99476   1.41669    0.000
 3704.00    3.37871   1.40662    0.000
 3705.00    3.35054   1.39861    0.000
 3706.00    2.66465   1.39301    0.000
 3707.00    2.04698   1.39057    0.000
 3708.00    1.92688   1.39087    0.000
 3709.00    2.17274   1.39271    0.000
 3710.00    2.96755   1.39597    0.000
 3711.00    3.48717   1.39948    0.000
 3712.00    3.74749   1.40175    0.000
 3713.00    3.68874   1.40242    0.000
 3714.00    2.93657   1.40027    0.000
 3715.00    2.56474   1.39495    0.000
 3716.00    2.74291   1.38768    0.000
 3717.00    2.95195   1.37799    0.000
 3718.00    3.27321   1.36709    0.000
 3719.00    4.22224   1.35829    0.000
 3720.00    5.77914   1.35083    0.000
 3721.00    7.18218   1.34566    0.000
 3722.00    9.72883   1.34464    0.000
 3723.00   24.74388   1.34568    0.000
 3724.00   58.02917   1.34800    0.000
 3725.00   81.28043   1.35109    0.000
 3726.00  118.64921   1.35252    0.000
 3727.00  152.87817   1.35151    0.000
 3728.00  129.66148   1.34819    0.000
 3729.00  114.53555   1.34173    0.000
 3730.00   80.79379   1.33294    0.000
 3731.00   21.50489   1.32341    0.000
 3732.00    7.57043   1.31383    0.000
 3733.00    6.44126   1.30654    0.000
 3734.00    6.24029   1.30278    0.000
 3735.00    5.95630   1.30254    0.000
 3736.00    4.40299   1.30657    0.000
 3737.00    3.10189   1.31350    0.000
 3738.00    2.74905   1.32133    0.000
 3739.00    2.56852   1.32865    0.000
 3740.00    2.36645   1.33371   -1.000
 3741.00    2.18932   1.33486   -1.000
 3742.00    2.04002   1.33222   -1.000
 3743.00    1.96100   1.32578   -1.000
 3744.00    1.89290   1.31632   -1.000
 3745.00    1.82655   1.30560    0.000
 3746.00    1.80414   1.29523    0.000
 3747.00    2.28485   1.28625    0.000
 3748.00    3.36035   1.28034    0.000
 3749.00    4.22256   1.27848    0.000
 3750.00    4.71633   1.27974    0.000
 3751.00    4.57097   1.28417    0.000
 3752.00    2.65332   1.29127    0.000
 3753.00    1.60298   1.29836    0.000
 3754.00    1.48041   1.30450    0.000
 3755.00    1.32874   1.30940   12.631
 3756.00    1.33674   1.31239   12.643
 3757.00    1.42318   1.31365   12.261
 3758.00    1.38540   1.31309   12.442
 3759.00    1.36621   1.31173   12.530
 3760.00    1.32242   1.31056   12.745
 3761.00    1.29946   1.30787   12.850
 3762.00    1.24544   1.30420   13.150
 3763.00    1.25336   1.30050   13.118
 3764.00    1.26271   1.29480   13.112
 3765.00    1.29544   1.28804    0.000
 3766.00    1.30327   1.28177    0.000
 3767.00    1.53211   1.27560    0.000
 3768.00    2.68869   1.27072    0.000
 3769.00    4.15240   1.26905    0.000
 3770.00    4.96302   1.27023    0.000
 3771.00    5.37357   1.27399    0.000
 3772.00    3.87215   1.28123    0.000
 3773.00    1.70152   1.29061    0.000
 3774.00    1.20293   1.30088    0.000
 3775.00    1.15841   1.31168    0.000
 3776.00    1.06888   1.32185   -1.000
 3777.00    1.12310   1.33089   -1.000
 3778.00    1.16587   1.33845   -1.000
 3779.00    1.17322   1.34380   -1.000
 3780.00    1.15758   1.34736   -1.000
 3781.00    1.10887   1.34859   -1.000
 3782.00    1.12253   1.34712   -1.000
 3783.00    1.11430   1.34389   -1.000
 3784.00    1.15936   1.33831   -1.000
 3785.00    1.23753   1.33050   13.488
 3786.00    1.19349   1.32163   13.766
 3787.00    1.14583   1.31154   -1.000
 3788.00    1.15011   1.30017   -1.000
 3789.00    1.19885   1.28817   13.769
 3790.00    1.20313   1.27572   13.747
 3791.00    1.17943   1.26219   13.852
 3792.00    1.13660   1.24810   14.123
 3793.00    1.17592   1.23464    0.000
 3794.00    1.30625   1.22172    0.000
 3795.00    2.57114   1.21069    0.000
 3796.00    4.74835   1.20353    0.000
 3797.00    6.02333   1.20039    0.000
 3798.00    6.76891   1.20204    0.000
 3799.00    5.49776   1.20853    0.000
 3800.00    2.41054   1.21859    0.000
 3801.00    1.27678   1.23123    0.000
 3802.00    1.19657   1.24478    0.000
 3803.00    1.16401   1.25762   14.205
 3804.00    1.20721   1.26871   13.945
 3805.00    1.19290   1.27783   13.998
 3806.00    1.17567   1.28462   14.133
 3807.00    1.22992   1.28833   13.884
 3808.00    1.21880   1.29022   13.939
 3809.00    1.16137   1.29039   14.302
 3810.00    1.17537   1.28785   14.237
 3811.00    1.15613   1.28406   14.362
 3812.00    1.16814   1.27918   14.317
 3813.00    1.12385   1.27248   -1.000
 3814.00    1.17534   1.26529   14.241
 3815.00    1.14229   1.25823    0.000
 3816.00    1.21765   1.25064    0.000
 3817.00    1.52799   1.24341    0.000
 3818.00    1.92398   1.23725    0.000
 3819.00    2.23197   1.23141    0.000
 3820.00    2.27169   1.22637    0.000
 3821.00    1.84248   1.22182    0.000
 3822.00    1.26485   1.21750    0.000
 3823.00    1.16400   1.21350    0.000
 3824.00    1.20497   1.20835   14.153
 3825.00    1.23543   1.20271   13.973
 3826.00    1.17071   1.19610   14.339
 3827.00    1.16193   1.18706   14.404
 3828.00    1.16775   1.17708   14.394
 3829.00    1.12047   1.16552   14.672
 3830.00    1.22685   1.15215    0.000
 3831.00    1.31949   1.13960    0.000
 3832.00    2.06138   1.12784    0.000
 3833.00    4.85708   1.11750    0.000
 3834.00    7.17687   1.11184    0.000
 3835.00    8.60045   1.11036    0.000
 3836.00    8.58126   1.11252    0.000
 3837.00    4.64378   1.12042    0.000
 3838.00    1.74372   1.13207    0.000
 3839.00    1.21178   1.14542    0.000
 3840.00    1.17571   1.16110    0.000
 3841.00    1.17484   1.17704   14.455
 3842.00    1.14821   1.19143   14.628
 3843.00    1.16667   1.20453   14.499
 3844.00    1.15374   1.21536   14.575
 3845.00    1.22424   1.22340   14.148
 3846.00    1.23071   1.22917   14.125
 3847.00    1.18055   1.23292   14.417
 3848.00    1.15295   1.23444   14.613
 3849.00    1.20388   1.23458   14.306
 3850.00    1.19373   1.23398   14.359
 3851.00    1.20848   1.23179   14.274
 3852.00    1.26858   1.22885   13.932
 3853.00    1.29085   1.22577   13.857
 3854.00    1.34185   1.22215   13.609
 3855.00    1.31075   1.21802   13.765
 3856.00    1.32453   1.21465   13.693
 3857.00    1.35659   1.21219   13.524
 3858.00    1.37617   1.20958   13.471
 3859.00    1.38744   1.20828    0.000
 3860.00    1.42279   1.20785    0.000
 3861.00    1.49172   1.20712    0.000
 3862.00    1.54476   1.20687    0.000
 3863.00    1.68090   1.20641    0.000
 3864.00    1.86702   1.20557    0.000
 3865.00    3.51624   1.20437    0.000
 3866.00   12.80840   1.20295    0.000
 3867.00   25.17212   1.20158    0.000
 3868.00   32.82093   1.19992    0.000
 3869.00   36.71943   1.19870    0.000
 3870.00   25.46227   1.19793    0.000
 3871.00    6.65813   1.19680    0.000
 3872.00    2.33484   1.19611    0.000
 3873.00    1.93250   1.19568    0.000
 3874.00    1.74861   1.19397    0.000
 3875.00    1.56517   1.19200    0.000
 3876.00    1.50671   1.18977    0.000
 3877.00    1.47939   1.18544   13.133
 3878.00    1.46279   1.18039   13.205
 3879.00    1.51524   1.17450   -1.000
 3880.00    1.50596   1.16619   -1.000
 3881.00    1.49272   1.15672   -1.000
 3882.00    1.53842   1.14624    0.000
 3883.00    1.51305   1.13392    0.000
 3884.00    1.58274   1.12167    0.000
 3885.00    2.50606   1.11104    0.000
 3886.00    7.64620   1.10217    0.000
 3887.00   15.37760   1.09709    0.000
 3888.00   20.13105   1.09757    0.000
 3889.00   22.61887   1.10234    0.000
 3890.00   16.92597   1.11165    0.000
 3891.00    5.42584   1.12528    0.000
 3892.00    1.86994   1.13979    0.000
 3893.00    1.44552   1.15527    0.000
 3894.00    1.34581   1.17019    0.000
 3895.00    1.31303   1.18230    0.000
 3896.00    1.30370   1.19322   13.790
 3897.00    1.25041   1.20159   14.059
 3898.00    1.22116   1.20754   14.204
 3899.00    1.19822   1.21264   14.334
 3900.00    1.22337   1.21623   14.146
 3901.00    1.15425   1.21888   14.556
 3902.00    1.16164   1.22158   14.482
 3903.00    1.20348   1.22441   14.191
 3904.00    1.17432   1.22695   14.334
 3905.00    1.16462   1.23005   14.379
 3906.00    1.10779   1.23420   14.707
 3907.00    1.07123   1.23786   -1.000
 3908.00    1.10396   1.24129   14.680
 3909.00    1.11353   1.24526   14.610
 3910.00    1.08953   1.24789   -1.000
 3911.00    1.01536   1.24881   -1.000
 3912.00    1.00744   1.24905   -1.000
 3913.00    0.99527   1.24741   -1.000
 3914.00    1.05245   1.24342   -1.000
 3915.00    1.08695   1.23831   -1.000
 3916.00    1.02530   1.23168   -1.000
 3917.00    1.04013   1.22361   -1.000
 3918.00    1.10661   1.21508   14.509
 3919.00    1.04150   1.20620   -1.000
 3920.00    1.06987   1.19767   14.743
 3921.00    1.10003   1.18912   14.525
 3922.00    1.08379   1.18105   14.620
 3923.00    1.07545   1.17374   14.667
 3924.00    1.07179   1.16546   14.682
 3925.00    1.14727   1.15694   14.199
 3926.00    1.17164   1.14789   14.050
 3927.00    1.13506   1.13732   14.305
 3928.00    1.09994   1.12526   14.536
 3929.00    1.02820   1.11403   15.046
 3930.00    1.03706   1.10423   14.988
 3931.00    1.05185   1.09343   14.890
 3932.00    1.04757   1.08830   14.936
 3933.00    1.03541   1.08874   15.059
 3934.00    0.99120   1.08900   15.410
 3935.00    0.96787   1.09589   15.606
 3936.00    1.01139   1.10706   15.256
 3937.00    1.01024   1.11605   15.283
 3938.00    1.05688   1.12731   14.974
 3939.00    1.04073   1.13852   15.105
 3940.00    1.08498   1.14576   14.820
 3941.00    1.12041   1.15278   14.608
 3942.00    1.07483   1.15850   14.940
 3943.00    1.04904   1.16159   15.134
 3944.00    1.11143   1.16533   14.730
 3945.00    1.11728   1.16854   14.693
 3946.00    1.11597   1.17092   14.727
 3947.00    1.09749   1.17414   14.882
 3948.00    1.04102   1.17681   -1.000
 3949.00    1.07895   1.17875   15.058
 3950.00    1.10108   1.18012   14.937
 3951.00    1.16698   1.18022   14.522
 3952.00    1.19715   1.17905   14.380
 3953.00    1.17245   1.17608   14.551
 3954.00    1.20436   1.17143   14.404
 3955.00    1.15908   1.16492   14.719
 3956.00    1.19621   1.15637   14.530
 3957.00    1.23953   1.14606    0.000
 3958.00    1.23488   1.13311    0.000
 3959.00    1.24295   1.11818    0.000
 3960.00    1.26877   1.10105    0.000
 3961.00    1.35089   1.08149    0.000
 3962.00    1.70318   1.05996    0.000
 3963.00    2.21057   1.03663    0.000
 3964.00    3.44737   1.01378    0.000
 3965.00    7.34696   0.99122    0.000
 3966.00   10.82370   0.97061    0.000
 3967.00   15.84321   0.95665    0.000
 3968.00   22.83910   0.94858    0.000
 3969.00   21.21667   0.94696    0.000
 3970.00   19.31456   0.95450    0.000
 3971.00   15.24467   0.96909    0.000
 3972.00    5.74848   0.98840    0.000
 3973.00    1.97387   1.01199    0.000
 3974.00    1.40046   1.03766    0.000
 3975.00    1.31149   1.06229    0.000
 3976.00    1.29882   1.08550    0.000
 3977.00    1.25260   1.10674   14.860
 3978.00    1.24847   1.12383   14.917
 3979.00    1.18593   1.13823   15.334
 3980.00    1.14634   1.15014   15.608
 3981.00    1.14173   1.15858   15.663
 3982.00    1.10362   1.16519   15.941
 3983.00    1.05159   1.17160   16.353
 3984.00    1.07850   1.17569   16.160
 3985.00    1.09446   1.17867   16.072
 3986.00    1.02581   1.18422   -1.000
 3987.00    1.05064   1.18703   -1.000
 3988.00    1.02608   1.18976   -1.000
 3989.00    1.01724   1.19423   -1.000
 3990.00    1.02729   1.19631   -1.000
 3991.00    1.03985   1.19841   -1.000
 3992.00    1.08890   1.20045   16.171
 3993.00    1.02852   1.20111   -1.000
 3994.00    1.02261   1.20164   -1.000
 3995.00    1.01640   1.20186   -1.000
 3996.00    1.02684   1.20183   -1.000
 3997.00    1.03366   1.20187   -1.000
 3998.00    0.98256   1.20154   -1.000
 3999.00    0.96863   1.20142   -1.000
 4000.00    1.00610   1.20098   -1.000
 4001.00    0.99901   1.20031   -1.000
 4002.00    1.01338   1.19935   -1.000
 4003.00    1.00891   1.19863    0.000
 4004.00    0.99553   1.19814    0.000
 4005.00    1.01562   1.19806    0.000
 4006.00    1.02748   1.19944    0.000
 4007.00    1.09883   1.20094    0.000
 4008.00    1.14826   1.20321    0.000
 4009.00    1.22261   1.20693    0.000
 4010.00    1.23447   1.20990    0.000
 4011.00    1.11330   1.21308    0.000
 4012.00    1.00563   1.21657    0.000
 4013.00    0.97104   1.21851    0.000
 4014.00    0.96916   1.22036    0.000
 4015.00    1.00407   1.22156   -1.000
 4016.00    1.02536   1.22124   -1.000
 4017.00    1.01602   1.22070   -1.000
 4018.00    0.95751   1.21904   -1.000
 4019.00    0.95582   1.21604   -1.000
 4020.00    0.98148   1.21298    0.000
 4021.00    1.00981   1.20897    0.000
 4022.00    1.06507   1.20439    0.000
 4023.00    1.42098   1.20001    0.000
 4024.00    2.24565   1.19560    0.000
 4025.00    2.79196   1.19167    0.000
 4026.00    3.15520   1.18796    0.000
 4027.00    2.88654   1.18420    0.000
 4028.00    1.71718   1.18085    0.000
 4029.00    1.09153   1.17775    0.000
 4030.00    1.00000   1.17554    0.000
 4031.00    0.97214   1.17445    0.000
 4032.00    0.98911   1.17443   -1.000
 4033.00    1.02694   1.17656   -1.000
 4034.00    1.06348   1.17994   16.057
 4035.00    0.99990   1.18375   -1.000
 4036.00    1.01296   1.18826   -1.000
 4037.00    0.99360   1.19157   -1.000
 4038.00    1.01235   1.19290   -1.000
 4039.00    0.99836   1.19321   -1.000
 4040.00    0.94605   1.19062   -1.000
 4041.00    0.95014   1.18645   -1.000
 4042.00    0.98570   1.18191   -1.000
 4043.00    0.98098   1.17651   -1.000
 4044.00    0.99943   1.17306   -1.000
 4045.00    0.98533   1.17126   -1.000
 4046.00    0.98011   1.17117   -1.000
 4047.00    0.97796   1.17363   -1.000
 4048.00    0.94378   1.17685   -1.000
 4049.00    0.91933   1.18095   -1.000
 4050.00    0.99174   1.18489   -1.000
 4051.00    0.98155   1.18715   -1.000
 4052.00    0.95262   1.18841   -1.000
 4053.00    0.95372   1.18805   -1.000
 4054.00    0.98850   1.18576   -1.000
 4055.00    1.02633   1.18217   -1.000
 4056.00    1.01432   1.17789   -1.000
 4057.00    1.02821   1.17223   -1.000
 4058.00    1.03455   1.16614   -1.000
 4059.00    1.02735   1.15999   -1.000
 4060.00    1.00701   1.15211   -1.000
 4061.00    1.01400   1.14575    0.000
 4062.00    0.97212   1.13985    0.000
 4063.00    0.99509   1.13240    0.000
 4064.00    1.01149   1.12922    0.000
 4065.00    1.10499   1.12632    0.000
 4066.00    1.63220   1.12283    0.000
 4067.00    2.13714   1.12285    0.000
 4068.00    2.26483   1.12201    0.000
 4069.00    2.20514   1.12115    0.000
 4070.00    1.74424   1.12149    0.000
 4071.00    1.22546   1.12082    0.000
 4072.00    1.06900   1.12083    0.000
 4073.00    1.14863   1.12116    0.000
 4074.00    1.31679   1.12135    0.000
 4075.00    1.41311   1.12299    0.000
 4076.00    1.50979   1.12541    0.000
 4077.00    1.44494   1.12858    0.000
 4078.00    1.17023   1.13274    0.000
 4079.00    1.11479   1.13752    0.000
 4080.00    1.10518   1.14217    0.000
 4081.00    1.05933   1.14695    0.000
 4082.00    1.03559   1.15129    0.000
 4083.00    1.08059   1.15490   16.702
 4084.00    1.15746   1.15822   16.161
 4085.00    1.10393   1.16045   16.569
 4086.00    1.07786   1.16155   16.783
 4087.00    1.11301   1.16168   16.533
 4088.00    1.14583   1.15945   16.311
 4089.00    1.18131   1.15507   16.083
 4090.00    1.20121   1.14887   15.957
 4091.00    1.18877   1.13884   16.057
 4092.00    1.19014   1.12648   16.053
 4093.00    1.24222   1.11182   15.737
 4094.00    1.29498   1.09395   15.425
 4095.00    1.35274   1.07567   -1.000
 4096.00    1.43600   1.05691   -1.000
 4097.00    1.60027   1.03832   -1.000
 4098.00    3.45352   1.02278   -1.000
 4099.00   12.54303   1.01071    0.000
 4100.00   22.53671   1.00280    0.000
 4101.00   28.39657   1.00113    0.000
 4102.00   30.12160   1.00456    0.000
 4103.00   18.68673   1.01201    0.000
 4104.00    5.05185   1.02376    0.000
 4105.00    1.81026   1.03725    0.000
 4106.00    1.47457   1.05136    0.000
 4107.00    1.35784   1.06508   -1.000
 4108.00    1.28610   1.07701   15.673
 4109.00    1.24328   1.08771   15.961
 4110.00    1.20545   1.09623   16.225
 4111.00    1.14810   1.10275   16.639
 4112.00    1.12630   1.10811   16.808
 4113.00    1.09488   1.11182   17.051
 4114.00    1.05920   1.11427   17.336
 4115.00    1.00398   1.11591   -1.000
 4116.00    1.05456   1.11649    0.000
 4117.00    1.05732   1.11674    0.000
 4118.00    1.13380   1.11679    0.000
 4119.00    1.22424   1.11651    0.000
 4120.00    1.22951   1.11649    0.000
 4121.00    1.19529   1.11651    0.000
 4122.00    1.13665   1.11639    0.000
 4123.00    1.05577   1.11618    0.000
 4124.00    0.98364   1.11518    0.000
 4125.00    0.96398   1.11349    0.000
 4126.00    0.98792   1.11100   -1.000
 4127.00    0.98687   1.10798   -1.000
 4128.00    1.00260   1.10447   17.883
 4129.00    0.99229   1.10088   17.969
 4130.00    0.98146   1.09774   18.079
 4131.00    0.95177   1.09540   -1.000
 4132.00    0.97525   1.09433   18.139
 4133.00    0.99396   1.09413   17.975
 4134.00    0.97340   1.09463   18.167
 4135.00    0.97263   1.09557   -1.000
 4136.00    0.98295   1.09613   -1.000
 4137.00    0.97520   1.09602   -1.000
 4138.00    0.96734   1.09478   -1.000
 4139.00    0.93464   1.09240    0.000
 4140.00    1.00062   1.08878    0.000
 4141.00    1.11084   1.08498    0.000
 4142.00    1.22803   1.08123    0.000
 4143.00    1.26689   1.07807    0.000
 4144.00    1.25140   1.07629    0.000
 4145.00    1.11807   1.07493    0.000
 4146.00    0.97991   1.07499    0.000
 4147.00    0.91785   1.07585    0.000
 4148.00    0.91577   1.07655   -1.000
 4149.00    0.93259   1.07792   -1.000
 4150.00    0.92501   1.07887   -1.000
 4151.00    0.94543   1.07986   -1.000
 4152.00    0.97256   1.08134   18.272
 4153.00    0.98487   1.08244   18.154
 4154.00    1.00944   1.08429   17.935
 4155.00    0.93575   1.08667   -1.000
 4156.00    0.90477   1.08912   -1.000
 4157.00    0.94693   1.09235   -1.000
 4158.00    0.94266   1.09510   -1.000
 4159.00    0.94420   1.09749   -1.000
 4160.00    0.93830   1.09955   -1.000
 4161.00    0.96776   1.10008   -1.000
 4162.00    0.93444   1.09948   -1.000
 4163.00    0.93273   1.09779   -1.000
 4164.00    0.95863   1.09447   -1.000
 4165.00    0.97654   1.09044   -1.000
 4166.00    0.95188   1.08547   -1.000
 4167.00    0.92916   1.08013   -1.000
 4168.00    0.93694   1.07482   -1.000
 4169.00    0.97043   1.06908   18.263
 4170.00    0.97069   1.06413   18.261
 4171.00    0.94227   1.05958   -1.000
 4172.00    0.91925   1.05597   -1.000
 4173.00    0.89352   1.05325   -1.000
 4174.00    0.87315   1.05133   -1.000
 4175.00    0.87953   1.05069   -1.000
 4176.00    0.92413   1.05082   -1.000
 4177.00    0.91994   1.05167   -1.000
 4178.00    0.89537   1.05263   -1.000
 4179.00    0.88623   1.05390   -1.000
 4180.00    0.91481   1.05507   -1.000
 4181.00    0.89128   1.05599   -1.000
 4182.00    0.88194   1.05672   -1.000
 4183.00    0.89319   1.05662   -1.000
 4184.00    0.89526   1.05609   -1.000
 4185.00    0.87921   1.05508   -1.000
 4186.00    0.87544   1.05372   -1.000
 4187.00    0.89098   1.05183   -1.000
 4188.00    0.92265   1.04912   -1.000
 4189.00    0.92016   1.04607   -1.000
 4190.00    0.91652   1.04227   -1.000
 4191.00    0.91598   1.03774   -1.000
 4192.00    0.86570   1.03219   -1.000
 4193.00    0.83148   1.02528   -1.000
 4194.00    0.85880   1.01835   -1.000
 4195.00    0.85910   1.01099   -1.000
 4196.00    0.89015   1.00395   -1.000
 4197.00    0.93731   0.99802   18.425
 4198.00    0.90451   0.99364   18.744
 4199.00    0.87449   0.99197   19.058
 4200.00    0.85298   0.99243   -1.000
 4201.00    0.88839   0.99546   18.885
 4202.00    0.85179   1.00049   -1.000
 4203.00    0.87711   1.00689   -1.000
 4204.00    0.91248   1.01405   18.626
 4205.00    0.87276   1.02086   -1.000
 4206.00    0.86835   1.02692   -1.000
 4207.00    0.90158   1.03139   -1.000
 4208.00    0.89328   1.03431   -1.000
 4209.00    0.88980   1.03567   -1.000
 4210.00    0.89964   1.03568   -1.000
 4211.00    0.92126   1.03478   -1.000
 4212.00    0.90704   1.03291   -1.000
 4213.00    0.87862   1.03125   -1.000
 4214.00    0.83331   1.02945   -1.000
 4215.00    0.88442   1.02758   -1.000
 4216.00    0.89436   1.02575   -1.000
 4217.00    0.88444   1.02256   -1.000
 4218.00    0.90765   1.01874   -1.000
 4219.00    0.93576   1.01322   18.303
 4220.00    0.96533   1.00561   18.013
 4221.00    0.92484   0.99712   18.394
 4222.00    0.92282   0.98708   18.414
 4223.00    0.86741   0.97760   -1.000
 4224.00    0.86492   0.96899   19.013
 4225.00    0.88043   0.96236   18.844
 4226.00    0.89154   0.95876   18.726
 4227.00    0.89181   0.95778   18.716
 4228.00    0.89825   0.95973   18.646
 4229.00    0.91725   0.96358   18.453
 4230.00    0.91115   0.96905   18.519
 4231.00    0.88907   0.97499   18.738
 4232.00    0.88637   0.98097   18.774
 4233.00    0.83616   0.98671   -1.000
 4234.00    0.84679   0.99205   -1.000
 4235.00    0.89097   0.99733   18.736
 4236.00    0.87231   1.00259   -1.000
 4237.00    0.85195   1.00782   -1.000
 4238.00    0.87663   1.01326   -1.000
 4239.00    0.87138   1.01881   -1.000
 4240.00    0.90835   1.02375   18.588
 4241.00    0.90673   1.02831   -1.000
 4242.00    0.89322   1.03127   -1.000
 4243.00    0.87089   1.03271   -1.000
 4244.00    0.88994   1.03261   -1.000
 4245.00    0.87021   1.03001   -1.000
 4246.00    0.87794   1.02649   -1.000
 4247.00    0.89962   1.02124   -1.000
 4248.00    0.85984   1.01571   -1.000
 4249.00    0.88596   1.01042   -1.000
 4250.00    0.91395   1.00502   18.633
 4251.00    0.91099   1.00114   18.678
 4252.00    0.92361   0.99747   18.557
 4253.00    0.90532   0.99554   18.763
 4254.00    0.87712   0.99456   -1.000
 4255.00    0.88769   0.99400   18.984
 4256.00    0.86073   0.99468   -1.000
 4257.00    0.84190   0.99543   -1.000
 4258.00    0.86837   0.99756   -1.000
 4259.00    0.87655   0.99995   -1.000
 4260.00    0.92025   1.00262   18.697
 4261.00    0.88449   1.00537   -1.000
 4262.00    0.86666   1.00730   -1.000
 4263.00    0.86293   1.00861   -1.000
 4264.00    0.88729   1.00800   -1.000
 4265.00    0.91295   1.00566   -1.000
 4266.00    0.92876   1.00131   18.687
 4267.00    0.95474   0.99508   18.444
 4268.00    0.93536   0.98824   18.650
 4269.00    0.88320   0.98097   19.197
 4270.00    0.88496   0.97469   19.185
 4271.00    0.89181   0.96985   19.124
 4272.00    0.90528   0.96710   18.997
 4273.00    0.88185   0.96676   19.256
 4274.00    0.88072   0.96865   19.276
 4275.00    0.93891   0.97233   18.689
 4276.00    0.94144   0.97659   18.666
 4277.00    0.90199   0.98134   19.071
 4278.00    0.89195   0.98555   19.188
 4279.00    0.87203   0.98879   -1.000
 4280.00    0.91074   0.99085   19.011
 4281.00    0.92875   0.99102   18.843
 4282.00    0.86000   0.98983   -1.000
 4283.00    0.87762   0.98757   -1.000
 4284.00    0.92502   0.98394   18.891
 4285.00    0.96621   0.97984   18.500
 4286.00    0.91790   0.97485   18.980
 4287.00    0.89292   0.96989   19.249
 4288.00    0.89023   0.96503   19.281
 4289.00    0.88394   0.96054   19.354
 4290.00    0.90948   0.95631   19.090
 4291.00    0.89334   0.95190   19.262
 4292.00    0.86987   0.94786   19.527
 4293.00    0.84386   0.94315   -1.000
 4294.00    0.83868   0.93835   -1.000
 4295.00    0.87357   0.93273   19.494
 4296.00    0.87895   0.92621   19.420
 4297.00    0.91337   0.91983   19.059
 4298.00    0.88640   0.91294   19.341
 4299.00    0.87725   0.90646   19.435
 4300.00    0.89526   0.90055   19.235
 4301.00    0.88343   0.89495   19.358
 4302.00    0.92078   0.89081   18.954
 4303.00    0.96695   0.88737   18.498
 4304.00    0.98803   0.88519   18.292
 4305.00    0.92869   0.88466   18.872
 4306.00    0.88716   0.88574   19.294
 4307.00    0.94392   0.88915   18.705
 4308.00    0.93452   0.89499   18.790
 4309.00    0.92907   0.90296   18.835
 4310.00    0.90785   0.91362   19.059
 4311.00    0.90665   0.92622   19.065
 4312.00    0.94949   0.93983   18.616
 4313.00    0.93921   0.95436   18.727
 4314.00    0.93472   0.96728   18.772
 4315.00    0.95827   0.97880   18.532
 4316.00    0.95478   0.98753   18.558
 4317.00    0.94803   0.99254   18.613
 4318.00    0.98699   0.99475   18.233
 4319.00    0.98384   0.99300   18.260
 4320.00    1.00599   0.98874   18.051
 4321.00    1.08007   0.98311   17.403
 4322.00    1.04643   0.97653   17.666
 4323.00    1.05287   0.97167   17.612
 4324.00    1.11372   0.96785   17.117
 4325.00    1.11577   0.96651   17.086
 4326.00    1.16417   0.96713   -1.000
 4327.00    1.14542   0.96884   16.848
 4328.00    1.16657   0.97215   16.684
 4329.00    1.19617   0.97409   16.472
 4330.00    1.26189   0.97526   -1.000
 4331.00    1.30440   0.97321   -1.000
 4332.00    1.33045   0.96791   -1.000
 4333.00    1.41081   0.95953   -1.000
 4334.00    1.54528   0.94795   -1.000
 4335.00    1.74893   0.93492   -1.000
 4336.00    2.42716   0.92117   -1.000
 4337.00    9.28362   0.90894   -1.000
 4338.00   30.58957   0.89921   -1.000
 4339.00   47.18536   0.89343   -1.000
 4340.00   56.62671   0.89211    0.000
 4341.00   53.63151   0.89476    0.000
 4342.00   23.57063   0.90188    0.000
 4343.00    4.55803   0.91117    0.000
 4344.00    1.98043   0.92248    0.000
 4345.00    1.68128   0.93356    0.000
 4346.00    1.61432   0.94313    0.000
 4347.00    1.50990   0.95142    0.000
 4348.00    1.39728   0.95687    0.000
 4349.00    1.31854   0.96130    0.000
 4350.00    1.26368   0.96401    0.000
 4351.00    1.21352   0.96592    0.000
 4352.00    1.22420   0.96770    0.000
 4353.00    1.18181   0.96933    0.000
 4354.00    1.11572   0.97175    0.000
 4355.00    1.07063   0.97475    0.000
 4356.00    1.09047   0.97839    0.000
 4357.00    1.07902   0.98232    0.000
 4358.00    1.07768   0.98610    0.000
 4359.00    1.11301   0.98966    0.000
 4360.00    1.73475   0.99256    0.000
 4361.00    3.09832   0.99479    0.000
 4362.00    3.94316   0.99592    0.000
 4363.00    4.47687   0.99566    0.000
 4364.00    3.97700   0.99415    0.000
 4365.00    2.05298   0.99120    0.000
 4366.00    1.15806   0.98708    0.000
 4367.00    1.02382   0.98196   17.666
 4368.00    0.99340   0.97583   17.926
 4369.00    0.94197   0.96909   18.415
 4370.00    0.94111   0.96208   18.421
 4371.00    0.93911   0.95488   18.448
 4372.00    0.92434   0.94834   18.599
 4373.00    0.91494   0.94155   18.694
 4374.00    0.89144   0.93529   18.940
 4375.00    0.90342   0.92875   18.813
 4376.00    0.92026   0.92195   18.648
 4377.00    0.91636   0.91523   18.690
 4378.00    0.92380   0.90735   18.613
 4379.00    0.92894   0.89999   18.568
 4380.00    0.88587   0.89214   19.021
 4381.00    0.89618   0.88557   18.918
 4382.00    0.88331   0.88007    0.000
 4383.00    0.81469   0.87621    0.000
 4384.00    0.83750   0.87447    0.000
 4385.00    1.03304   0.87450    0.000
 4386.00    1.27879   0.87702    0.000
 4387.00    1.40101   0.88089    0.000
 4388.00    1.46354   0.88660    0.000
 4389.00    1.29723   0.89245    0.000
 4390.00    0.95047   0.89862    0.000
 4391.00    0.87100   0.90456    0.000
 4392.00    0.85141   0.91000    0.000
 4393.00    0.85367   0.91513   19.431
 4394.00    0.85301   0.91877   19.447
 4395.00    0.83927   0.92106   19.596
 4396.00    0.83017   0.92179   19.709
 4397.00    0.82615   0.92075   19.766
 4398.00    0.86231   0.91834   19.355
 4399.00    0.85835   0.91454   19.408
 4400.00    0.90071   0.90940   18.951
 4401.00    0.90922   0.90447   18.874
 4402.00    0.85874   0.89938   19.423
 4403.00    0.83517   0.89597   19.699
 4404.00    0.82567   0.89388   19.828
 4405.00    0.78820   0.89351   20.292
 4406.00    0.82995   0.89517   19.781
 4407.00    0.86266   0.89807   19.402
 4408.00    0.87072   0.90225   19.314
 4409.00    0.91348   0.90677   18.853
 4410.00    0.87635   0.91094   19.252
 4411.00    0.82611   0.91443   19.841
 4412.00    0.81441   0.91733   -1.000
 4413.00    0.80626   0.91963   -1.000
 4414.00    0.86140   0.92151   19.406
 4415.00    0.87156   0.92260   19.276
 4416.00    0.85807   0.92342   19.427
 4417.00    0.89073   0.92361   19.066
 4418.00    0.85392   0.92385   19.465
 4419.00    0.81164   0.92355   -1.000
 4420.00    0.81998   0.92328   -1.000
 4421.00    0.83400   0.92219   19.677
 4422.00    0.84002   0.92052   19.606
 4423.00    0.78738   0.91872   -1.000
 4424.00    0.77577   0.91638   -1.000
 4425.00    0.86093   0.91457   19.356
 4426.00    0.85829   0.91259   19.403
 4427.00    0.82991   0.91110   19.723
 4428.00    0.85196   0.90993   19.471
 4429.00    0.86192   0.90864   19.363
 4430.00    0.84253   0.90795   19.599
 4431.00    0.82191   0.90717   19.833
 4432.00    0.82836   0.90749   19.768
 4433.00    0.79009   0.90807   20.244
 4434.00    0.77464   0.90977   -1.000
 4435.00    0.81155   0.91163   19.989
 4436.00    0.87273   0.91394   19.278
 4437.00    0.92312   0.91656   18.749
 4438.00    0.89320   0.91925   19.075
 4439.00    0.83200   0.92285   19.751
 4440.00    0.85020   0.92606   19.552
 4441.00    0.82421   0.92990   19.858
 4442.00    0.78956   0.93280   -1.000
 4443.00    0.77501   0.93566   -1.000
 4444.00    0.79906   0.93793   -1.000
 4445.00    0.83237   0.93973   19.759
 4446.00    0.82394   0.94096   -1.000
 4447.00    0.81251   0.94060   -1.000
 4448.00    0.82456   0.93925   -1.000
 4449.00    0.84064   0.93560   19.652
 4450.00    0.85678   0.93089   19.468
 4451.00    0.81243   0.92473   -1.000
 4452.00    0.79838   0.91810   -1.000
 4453.00    0.84657   0.91164   19.584
 4454.00    0.85892   0.90485   19.444
 4455.00    0.79875   0.89941   20.165
 4456.00    0.84577   0.89450   19.598
 4457.00    0.85092   0.89149   19.537
 4458.00    0.82246   0.89005   19.878
 4459.00    0.81707   0.89027   19.943
 4460.00    0.81947   0.89196   19.924
 4461.00    0.78528   0.89429   20.354
 4462.00    0.84142   0.89726   19.667
 4463.00    0.86749   0.90043   19.365
 4464.00    0.85532   0.90385   19.514
 4465.00    0.85016   0.90700    0.000
 4466.00    0.83281   0.91022    0.000
 4467.00    0.99936   0.91313    0.000
 4468.00    1.70043   0.91623    0.000
 4469.00    3.60749   0.91917    0.000
 4470.00    5.03184   0.92210    0.000
 4471.00    5.85712   0.92526    0.000
 4472.00    5.55813   0.92787    0.000
 4473.00    2.58327   0.93066    0.000
 4474.00    1.07121   0.93253    0.000
 4475.00    0.90057   0.93385    0.000
 4476.00    0.84127   0.93404    0.000
 4477.00    0.81800   0.93348    0.000
 4478.00    0.85758   0.93306   19.486
 4479.00    0.90561   0.93191   18.957
 4480.00    0.88273   0.93177   19.203
 4481.00    0.87471   0.93111   19.283
 4482.00    0.85255   0.93114   19.531
 4483.00    0.87380   0.93080   19.293
 4484.00    0.89913   0.93079   19.013
 4485.00    0.87155   0.93088   19.306
 4486.00    0.83305   0.93039   19.758
 4487.00    0.79277   0.93011   -1.000
 4488.00    0.81984   0.92856   -1.000
 4489.00    0.84611   0.92709   19.601
 4490.00    0.85486   0.92455   19.503
 4491.00    0.84958   0.92272   19.564
 4492.00    0.82119   0.92124   19.901
 4493.00    0.80181   0.92051   -1.000
 4494.00    0.80018   0.92085   20.166
 4495.00    0.78995   0.92159   -1.000
 4496.00    0.82625   0.92318   19.847
 4497.00    0.79337   0.92576   -1.000
 4498.00    0.78437   0.92881   -1.000
 4499.00    0.82720   0.93371   19.851
 4500.00    0.83269   0.93797   19.792
 4501.00    0.80398   0.94316   -1.000
 4502.00    0.80897   0.94754   -1.000
 4503.00    0.81438   0.95114   -1.000
 4504.00    0.81261   0.95494   -1.000
 4505.00    0.77656   0.95676   -1.000
 4506.00    0.80842   0.95883   -1.000
 4507.00    0.84442   0.95880   -1.000
 4508.00    0.80455   0.95804   -1.000
 4509.00    0.80678   0.95616   -1.000
 4510.00    0.77291   0.95336   -1.000
 4511.00    0.80208   0.95075   -1.000
 4512.00    0.79584   0.94773   -1.000
 4513.00    0.78932   0.94478   -1.000
 4514.00    0.79329   0.94211   -1.000
 4515.00    0.78433   0.93929   -1.000
 4516.00    0.80499   0.93713   -1.000
 4517.00    0.78913   0.93463   -1.000
 4518.00    0.81392   0.93225   -1.000
 4519.00    0.80205   0.92914   -1.000
 4520.00    0.77186   0.92505   -1.000
 4521.00    0.77215   0.92035   -1.000
 4522.00    0.78888   0.91426   -1.000
 4523.00    0.81336   0.90765   20.138
 4524.00    0.79629   0.90028   -1.000
 4525.00    0.80986   0.89247   20.188
 4526.00    0.79938   0.88524   20.320
 4527.00    0.78785   0.87829   20.487
 4528.00    0.78017   0.87276   20.589
 4529.00    0.75598   0.86824   20.917
 4530.00    0.80190   0.86498   20.316
 4531.00    0.78370   0.86348   20.562
 4532.00    0.74855   0.86306   21.057
 4533.00    0.77157   0.86454   20.727
 4534.00    0.74273   0.86651   -1.000
 4535.00    0.77510   0.86913   20.707
 4536.00    0.79012   0.87158   20.507
 4537.00    0.82408   0.87391   20.074
 4538.00    0.79132   0.87645   20.499
 4539.00    0.78719   0.87845   20.568
 4540.00    0.82938   0.88077   20.044
 4541.00    0.79253   0.88224   20.505
 4542.00    0.76243   0.88338   -1.000
 4543.00    0.76088   0.88420   -1.000
 4544.00    0.77528   0.88470   20.743
 4545.00    0.79956   0.88576   20.429
 4546.00    0.74879   0.88642   -1.000
 4547.00    0.77144   0.88768   -1.000
 4548.00    0.77842   0.88854   20.712
 4549.00    0.77773   0.88958   -1.000
 4550.00    0.75431   0.89078   -1.000
 4551.00    0.77041   0.89216   -1.000
 4552.00    0.79509   0.89429   20.487
 4553.00    0.82105   0.89635   20.158
 4554.00    0.78545   0.89983   20.603
 4555.00    0.77086   0.90246   -1.000
 4556.00    0.82401   0.90624   20.113
 4557.00    0.80030   0.90907   20.405
 4558.00    0.84210   0.91219   19.897
 4559.00    0.85395   0.91473   19.753
 4560.00    0.95239   0.91659   18.713
 4561.00    1.04119   0.91821   17.889
 4562.00    1.03320   0.91873   17.957
 4563.00    1.01632   0.91904   18.103
 4564.00    0.93070   0.91903   18.908
 4565.00    0.84091   0.91858   19.882
 4566.00    0.79063   0.91808   -1.000
 4567.00    0.78587   0.91764   -1.000
 4568.00    0.85905   0.91688   19.673
 4569.00    0.95780   0.91706   18.612
 4570.00    0.94252   0.91613   18.760
 4571.00    0.94629   0.91613   18.719
 4572.00    0.88561   0.91456   19.329
 4573.00    0.86392   0.91332   19.575
 4574.00    0.78268   0.91095   -1.000
 4575.00    0.78611   0.90852   -1.000
 4576.00    0.78858   0.90553   -1.000
 4577.00    0.76243   0.90255   -1.000
 4578.00    0.78296   0.89927   -1.000
 4579.00    0.79320   0.89597   20.360
 4580.00    0.78138   0.89319   20.508
 4581.00    0.79466   0.89027   20.324
 4582.00    0.77084   0.88873   20.612
 4583.00    0.75154   0.88700   -1.000
 4584.00    0.77650   0.88697   20.519
 4585.00    0.77710   0.88684   20.508
 4586.00    0.78204   0.88715   20.423
 4587.00    0.77405   0.88758   -1.000
 4588.00    0.79464   0.88716   20.242
 4589.00    0.79179   0.88706   20.263
 4590.00    0.76943   0.88605   -1.000
 4591.00    0.74761   0.88516   -1.000
 4592.00    0.73989   0.88366   -1.000
 4593.00    0.74718   0.88190   -1.000
 4594.00    0.78184   0.88016   20.339
 4595.00    0.76600   0.87819   20.535
 4596.00    0.74823   0.87686   -1.000
 4597.00    0.74019   0.87552   -1.000
 4598.00    0.75616   0.87497   -1.000
 4599.00    0.77772   0.87447   20.333
 4600.00    0.76578   0.87471    0.000
 4601.00    0.80135   0.87528    0.000
 4602.00    0.77870   0.87635    0.000
 4603.00    0.79329   0.87840    0.000
 4604.00    0.79739   0.88024    0.000
 4605.00    0.78616   0.88363    0.000
 4606.00    0.75206   0.88628    0.000
 4607.00    0.72357   0.88986    0.000
 4608.00    0.75830   0.89288    0.000
 4609.00    0.79329   0.89595    0.000
 4610.00    0.77526   0.89910    0.000
 4611.00    0.72421   0.90109    0.000
 4612.00    0.75329   0.90375    0.000
 4613.00    0.76274   0.90467    0.000
 4614.00    0.72968   0.90619    0.000
 4615.00    0.77623   0.90660    0.000
 4616.00    0.75703   0.90721    0.000
 4617.00    0.77307   0.90744    0.000
 4618.00    0.74043   0.90749    0.000
 4619.00    0.77311   0.90738    0.000
 4620.00    0.73010   0.90663    0.000
 4621.00    0.72922   0.90588    0.000
 4622.00    0.74395   0.90444    0.000
 4623.00    0.76055   0.90309    0.000
 4624.00    0.76076   0.90117    0.000
 4625.00    0.78437   0.89939    0.000
 4626.00    0.77131   0.89722    0.000
 4627.00    0.77382   0.89503    0.000
 4628.00    0.79401   0.89268    0.000
 4629.00    0.79241   0.89007    0.000
 4630.00    0.81054   0.88739    0.000
 4631.00    0.80137   0.88433    0.000
 4632.00    0.81832   0.88117    0.000
 4633.00    0.78274   0.87756    0.000
 4634.00    0.74323   0.87376    0.000
 4635.00    0.81311   0.86994    0.000
 4636.00    0.77840   0.86582    0.000
 4637.00    0.78592   0.86215    0.000
 4638.00    0.78380   0.85794    0.000
 4639.00    0.89739   0.85461    0.000
 4640.00    0.89143   0.85061    0.000
 4641.00    0.86367   0.84734    0.000
 4642.00    0.85605   0.84411    0.000
 4643.00    0.80584   0.84106    0.000
 4644.00    0.76356   0.83922    0.000
 4645.00    0.76323   0.83702    0.000
 4646.00    0.78724   0.83677    0.000
 4647.00    0.80718   0.83592    0.000
 4648.00    0.80854   0.83713    0.000
 4649.00    0.85984   0.83811    0.000
 4650.00    0.92735   0.84064    0.000
 4651.00    0.85563   0.84343    0.000
 4652.00    0.80845   0.84709    0.000
 4653.00    0.80283   0.85082    0.000
 4654.00    0.79396   0.85484    0.000
 4655.00    0.87589   0.85827    0.000
 4656.00    0.91395   0.86132    0.000
 4657.00    0.91390   0.86355    0.000
 4658.00    0.94581   0.86454    0.000
 4659.00    0.89970   0.86477    0.000
 4660.00    0.83783   0.86316    0.000
 4661.00    0.85639   0.86076    0.000
 4662.00    0.86982   0.85670    0.000
 4663.00    0.81257   0.85209    0.000
 4664.00    0.76318   0.84690    0.000
 4665.00    0.76937   0.84156    0.000
 4666.00    0.76951   0.83719    0.000
 4667.00    0.73624   0.83313    0.000
 4668.00    0.76437   0.83068    0.000
 4669.00    0.80429   0.82921    0.000
 4670.00    0.77585   0.82867    0.000
 4671.00    0.74748   0.82949    0.000
 4672.00    0.77141   0.83003    0.000
 4673.00    0.77105   0.83160    0.000
 4674.00    0.77411   0.83196    0.000
 4675.00    0.75832   0.83267    0.000
 4676.00    0.74432   0.83193    0.000
 4677.00    0.73897   0.83105    0.000
 4678.00    0.72631   0.82942    0.000
 4679.00    0.73084   0.82726    0.000
 4680.00    0.74484   0.82523    0.000
 4681.00    0.78717   0.82271    0.000
 4682.00    0.78873   0.82084    0.000
 4683.00    0.75549   0.81900    0.000
 4684.00    0.71960   0.81796    0.000
 4685.00    0.71949   0.81731    0.000
 4686.00    0.76045   0.81731    0.000
 4687.00    0.80080   0.81788    0.000
 4688.00    0.78919   0.81879    0.000
 4689.00    0.72884   0.82002    0.000
 4690.00    0.69310   0.82133    0.000
 4691.00    0.73825   0.82244    0.000
 4692.00    0.77807   0.82345    0.000
 4693.00    0.76992   0.82369    0.000
 4694.00    0.77751   0.82364    0.000
 4695.00    0.76358   0.82276    0.000
 4696.00    0.76768   0.82132    0.000
 4697.00    0.80477   0.81945    0.000
 4698.00    0.77222   0.81697    0.000
 4699.00    0.77911   0.81469    0.000
 4700.00    0.78605   0.81190    0.000
 4701.00    0.83383   0.80975    0.000
 4702.00    0.81278   0.80727    0.000
 4703.00    0.77619   0.80580    0.000
 4704.00    0.74635   0.80430    0.000
 4705.00    0.75740   0.80367    0.000
 4706.00    0.77867   0.80311    0.000
 4707.00    0.80993   0.80314    0.000
 4708.00    0.81618   0.80335    0.000
 4709.00    0.90155   0.80396    0.000
 4710.00    1.09832   0.80506    0.000
 4711.00    1.37226   0.80632    0.000
 4712.00    1.46851   0.80844    0.000
 4713.00    1.35200   0.81042    0.000
 4714.00    1.18186   0.81341    0.000
 4715.00    0.87125   0.81606    0.000
 4716.00    0.75849   0.81930    0.000
 4717.00    0.77374   0.82196    0.000
 4718.00    0.77856   0.82453    0.000
 4719.00    0.75964   0.82648    0.000
 4720.00    0.73281   0.82733    0.000
 4721.00    0.71671   0.82766    0.000
 4722.00    0.73683   0.82599    0.000
 4723.00    0.75451   0.82425    0.000
 4724.00    0.77764   0.82054    0.000
 4725.00    0.74467   0.81712    0.000
 4726.00    0.72518   0.81260    0.000
 4727.00    0.71451   0.80864    0.000
 4728.00    0.75935   0.80477    0.000
 4729.00    0.80215   0.80156    0.000
 4730.00    0.76974   0.79940    0.000
 4731.00    0.76135   0.79770    0.000
 4732.00    0.77324   0.79750    0.000
 4733.00    0.76641   0.79746    0.000
 4734.00    0.77175   0.79869    0.000
 4735.00    0.77745   0.79980    0.000
 4736.00    0.75583   0.80149    0.000
 4737.00    0.75383   0.80298    0.000
 4738.00    0.86078   0.80451    0.000
 4739.00    0.90447   0.80592    0.000
 4740.00    0.91405   0.80711    0.000
 4741.00    0.86383   0.80839    0.000
 4742.00    0.76741   0.80938    0.000
 4743.00    0.76461   0.81053    0.000
 4744.00    0.71775   0.81137    0.000
 4745.00    0.73686   0.81221    0.000
 4746.00    0.74749   0.81268    0.000
 4747.00    0.77453   0.81286    0.000
 4748.00    0.73731   0.81270    0.000
 4749.00    0.75036   0.81203    0.000
 4750.00    0.75026   0.81096    0.000
 4751.00    0.75779   0.80933   20.545
 4752.00    0.73729   0.80740   20.816
 4753.00    0.74729   0.80490   20.669
 4754.00    0.76965   0.80237   20.359
 4755.00    0.73938   0.79922   20.773
 4756.00    0.72649   0.79625   20.956
 4757.00    0.77564   0.79266   20.268
 4758.00    0.77782   0.78922   20.231
 4759.00    0.76240   0.78551   20.432
 4760.00    0.73295   0.78172   20.828
 4761.00    0.75585   0.77827   20.506
 4762.00    0.73472   0.77463   20.790
 4763.00    0.74819   0.77189   20.611
 4764.00    0.75652   0.76919   20.489
 4765.00    0.70041   0.76759   21.291
 4766.00    0.72196   0.76662   20.960
 4767.00    0.76329   0.76637   20.379
 4768.00    0.77087   0.76734   20.282
 4769.00    0.76134   0.76825   20.409
 4770.00    0.75902   0.77051   20.437
 4771.00    0.75027   0.77202   20.552
 4772.00    0.75052   0.77452   20.550
 4773.00    0.72926   0.77586   20.843
 4774.00    0.70238   0.77759   21.230
 4775.00    0.71137   0.77808   21.099
 4776.00    0.74821   0.77827   20.581
 4777.00    0.73965   0.77758   20.692
 4778.00    0.71800   0.77629   20.992
 4779.00    0.75075   0.77464   20.526
 4780.00    0.72617   0.77241   20.875
 4781.00    0.72170   0.77022   20.927
 4782.00    0.74789   0.76781   20.554
 4783.00    0.70394   0.76608   21.180
 4784.00    0.70208   0.76445   21.202
 4785.00    0.68222   0.76413   21.500
 4786.00    0.68475   0.76396   21.452
 4787.00    0.74673   0.76542   20.547
 4788.00    0.75269   0.76692   20.452
 4789.00    0.75640   0.76990   20.398
 4790.00    0.75048   0.77265   20.451
 4791.00    0.77384   0.77632   20.146
 4792.00    0.74924   0.77941   20.477
 4793.00    0.73215   0.78272   20.708
 4794.00    0.72888   0.78528   20.746
 4795.00    0.74512   0.78747   20.511
 4796.00    0.73668   0.78893   20.619
 4797.00    0.72878   0.78967   20.733
 4798.00    0.71320   0.78999   20.957
 4799.00    0.70619   0.78951   21.051
 4800.00    0.70775   0.78897   21.029
 4801.00    0.75387   0.78766   20.378
 4802.00    0.76878   0.78669   20.163
 4803.00    0.77107   0.78488   20.128
 4804.00    0.75457   0.78383   20.344
 4805.00    0.72286   0.78197   20.777
 4806.00    0.70646   0.78109   21.012
 4807.00    0.69997   0.77966   21.107
 4808.00    0.75190   0.77920   20.364
 4809.00    0.75262   0.77852   20.346
 4810.00    0.76965   0.77863   20.111
 4811.00    0.75878   0.77888   20.252
 4812.00    0.74835   0.77963   20.387
 4813.00    0.74253   0.78051   20.464
 4814.00    0.77818   0.78143   19.989
 4815.00    0.76173   0.78234   20.185
 4816.00    0.78014   0.78276   19.939
 4817.00    0.77862   0.78302   19.953
 4818.00    0.75964   0.78247   20.200
 4819.00    0.74034   0.78172   20.451
 4820.00    0.75667   0.78007   20.228
 4821.00    0.72342   0.77837   20.681
 4822.00    0.74025   0.77594   20.430
 4823.00    0.75171   0.77372   20.268
 4824.00    0.76150   0.77112   20.133
 4825.00    0.75330   0.76884   20.242
 4826.00    0.73143   0.76665   20.532
 4827.00    0.76897   0.76468   20.021
 4828.00    0.80900   0.76316   19.504
 4829.00    0.76274   0.76167   20.075
 4830.00    0.78623   0.76087   19.768
 4831.00    0.82188   0.75990   19.324
 4832.00    0.82079   0.75962   19.332
 4833.00    0.84660   0.75898   19.022
 4834.00    0.82669   0.75886   19.239
 4835.00    0.86557   0.75836   18.790
 4836.00    0.88838   0.75817   18.538
 4837.00    0.85431   0.75760   18.896
 4838.00    0.85213   0.75728   18.909
 4839.00    0.91041   0.75660   18.281
 4840.00    0.98856   0.75621   -1.000
 4841.00    1.01697   0.75553   -1.000
 4842.00    1.02826   0.75518   -1.000
 4843.00    1.06425   0.75458   -1.000
 4844.00    1.02944   0.75414   -1.000
 4845.00    1.01213   0.75346   -1.000
 4846.00    1.12199   0.75248   -1.000
 4847.00    1.21097   0.75120   -1.000
 4848.00    1.24204   0.74900   -1.000
 4849.00    1.31081   0.74643   -1.000
 4850.00    1.35081   0.74240   -1.000
 4851.00    1.41838   0.73784   -1.000
 4852.00    1.50218   0.73173   -1.000
 4853.00    1.60817   0.72493   -1.000
 4854.00    1.73458   0.71713   -1.000
 4855.00    1.91154   0.70864   -1.000
 4856.00    2.44432   0.70022   -1.000
 4857.00    6.01950   0.69150    0.000
 4858.00   31.77541   0.68408    0.000
 4859.00   84.13698   0.67716    0.000
 4860.00  118.82593   0.67244    0.000
 4861.00  138.71503   0.66908    0.000
 4862.00  116.18083   0.66804    0.000
 4863.00   37.39645   0.66882    0.000
 4864.00    5.39786   0.67114    0.000
 4865.00    2.44907   0.67503    0.000
 4866.00    1.99705   0.67928    0.000
 4867.00    1.79722   0.68449    0.000
 4868.00    1.62845   0.68920    0.000
 4869.00    1.51281   0.69439    0.000
 4870.00    1.41604   0.69876    0.000
 4871.00    1.32164   0.70337   -1.000
 4872.00    1.29457   0.70726   -1.000
 4873.00    1.25256   0.71137   -1.000
 4874.00    1.19657   0.71499   -1.000
 4875.00    1.15499   0.71858   -1.000
 4876.00    1.09093   0.72169   -1.000
 4877.00    1.07264   0.72435   -1.000
 4878.00    1.07224   0.72640   -1.000
 4879.00    1.03188   0.72761   -1.000
 4880.00    0.97406   0.72805   -1.000
 4881.00    0.94753   0.72765   -1.000
 4882.00    0.92986   0.72643   -1.000
 4883.00    0.92557   0.72486   -1.000
 4884.00    0.91379   0.72265   18.134
 4885.00    0.88353   0.72096   18.430
 4886.00    0.88134   0.71900   18.452
 4887.00    0.84613   0.71838   18.833
 4888.00    0.83901   0.71793   18.903
 4889.00    0.84084   0.71933   18.870
 4890.00    0.82930   0.72120   18.989
 4891.00    0.81862   0.72483   19.113
 4892.00    0.77423   0.72888   19.648
 4893.00    0.80379   0.73383   19.278
 4894.00    0.81778   0.73896   19.110
 4895.00    0.82966   0.74381   18.975
 4896.00    0.81702   0.74847   19.119
 4897.00    0.79852   0.75182   19.340
 4898.00    0.81356   0.75484   19.166
 4899.00    0.83939   0.75619   18.872
 4900.00    0.80055   0.75742   19.327
 4901.00    0.76150   0.75716   19.824
 4902.00    0.74389   0.75704   20.062
 4903.00    0.76000   0.75583   19.856
 4904.00    0.78105   0.75500   19.595
 4905.00    0.77892   0.75340   19.622
 4906.00    0.79719   0.75232   19.412
 4907.00    0.82252   0.75047   19.112
 4908.00    0.79992   0.74918   19.385
 4909.00    0.78244   0.74698   19.611
 4910.00    0.79107   0.74525   19.511
 4911.00    0.75028   0.74243   20.034
 4912.00    0.74394   0.73991   20.126
 4913.00    0.78503   0.73623   19.606
 4914.00    0.81197   0.73268    0.000
 4915.00    0.79129   0.72821    0.000
 4916.00    0.74839   0.72399    0.000
 4917.00    0.79318   0.71961    0.000
 4918.00    0.95691   0.71586    0.000
 4919.00    1.41290   0.71309    0.000
 4920.00    1.92676   0.71125    0.000
 4921.00    2.25134   0.71141    0.000
 4922.00    2.32647   0.71235    0.000
 4923.00    1.74840   0.71569    0.000
 4924.00    1.04164   0.71907    0.000
 4925.00    0.93146   0.72438    0.000
 4926.00    0.87602   0.72872    0.000
 4927.00    0.86167   0.73393    0.000
 4928.00    0.93289   0.73745    0.000
 4929.00    1.00279   0.74074   -1.000
 4930.00    1.01734   0.74218   -1.000
 4931.00    1.01421   0.74274   -1.000
 4932.00    1.00152   0.74191   -1.000
 4933.00    0.97911   0.74030   -1.000
 4934.00    1.00260   0.73812   -1.000
 4935.00    1.02848   0.73584   -1.000
 4936.00    1.03880   0.73380   -1.000
 4937.00    1.05071   0.73240   -1.000
 4938.00    1.06666   0.73180   -1.000
 4939.00    1.12570   0.73221   -1.000
 4940.00    1.20103   0.73360   -1.000
 4941.00    1.19934   0.73577   -1.000
 4942.00    1.26722   0.73877   -1.000
 4943.00    1.23614   0.74185    0.000
 4944.00    1.36764   0.74530    0.000
 4945.00    1.47946   0.74802    0.000
 4946.00    1.52715   0.75054    0.000
 4947.00    1.59250   0.75167    0.000
 4948.00    1.69607   0.75203    0.000
 4949.00    1.77391   0.75073    0.000
 4950.00    1.90478   0.74827    0.000
 4951.00    2.10065   0.74432    0.000
 4952.00    2.35581   0.73923    0.000
 4953.00    2.76926   0.73327    0.000
 4954.00    4.01490   0.72680    0.000
 4955.00   16.83985   0.72027    0.000
 4956.00   76.60540   0.71421    0.000
 4957.00  150.42203   0.70871    0.000
 4958.00  195.49051   0.70446    0.000
 4959.00  215.61786   0.70092    0.000
 4960.00  134.68105   0.69886    0.000
 4961.00   26.76134   0.69727    0.000
 4962.00    4.75631   0.69687    0.000
 4963.00    3.01859   0.69661    0.000
 4964.00    2.55553   0.69709    0.000
 4965.00    2.24736   0.69766    0.000
 4966.00    2.02315   0.69859    0.000
 4967.00    1.90135   0.69976    0.000
 4968.00    1.82679   0.70098    0.000
 4969.00    1.74985   0.70256    0.000
 4970.00    1.69593   0.70372    0.000
 4971.00    1.61087   0.70508    0.000
 4972.00    1.59555   0.70548   -1.000
 4973.00    1.56641   0.70576   -1.000
 4974.00    1.51645   0.70463   -1.000
 4975.00    1.49992   0.70315   -1.000
 4976.00    1.54596   0.70020   -1.000
 4977.00    1.53441   0.69699   -1.000
 4978.00    1.52845   0.69278   -1.000
 4979.00    1.51818   0.68873   -1.000
 4980.00    1.51734   0.68455   -1.000
 4981.00    1.54520   0.68100   -1.000
 4982.00    1.64467   0.67823   -1.000
 4983.00    1.72669   0.67631   -1.000
 4984.00    1.78484   0.67571   -1.000
 4985.00    1.86661   0.67575   -1.000
 4986.00    1.96806   0.67712   -1.000
 4987.00    2.00126   0.67855   -1.000
 4988.00    1.99796   0.68092   -1.000
 4989.00    2.08832   0.68270   -1.000
 4990.00    2.15914   0.68488   -1.000
 4991.00    2.32287   0.68602   -1.000
 4992.00    2.49896   0.68707   -1.000
 4993.00    2.66846   0.68691   -1.000
 4994.00    2.82512   0.68636   -1.000
 4995.00    3.05832   0.68468    0.000
 4996.00    3.26925   0.68252    0.000
 4997.00    3.56566   0.67950    0.000
 4998.00    4.01710   0.67611    0.000
 4999.00    4.52145   0.67230    0.000
 5000.00    5.19133   0.66836    0.000
 5001.00    6.34227   0.66451    0.000
 5002.00   10.77398   0.66077    0.000
 5003.00   56.71840   0.65752    0.000
 5004.00  246.73961   0.65451    0.000
 5005.00  464.47311   0.65208    0.000
 5006.00  597.25269   0.64990    0.000
 5007.00  642.83270   0.64811    0.000
 5008.00  383.27380   0.64654    0.000
 5009.00   66.98457   0.64505    0.000
 5010.00   11.34136   0.64382    0.000
 5011.00    6.93141   0.64249   -1.000
 5012.00    5.84759   0.64161   -1.000
 5013.00    6.05970   0.64068   -1.000
 5014.00    6.45832   0.64040   -1.000
 5015.00    6.49934   0.64025   -1.000
 5016.00    6.03508   0.64082   -1.000
 5017.00    4.34586   0.64168   -1.000
 5018.00    3.02313   0.64310   -1.000
 5019.00    2.70980   0.64487   -1.000
 5020.00    2.46017   0.64691   -1.000
 5021.00    2.24119   0.64932   -1.000
 5022.00    2.13490   0.65173   -1.000
 5023.00    2.03274   0.65448   -1.000
 5024.00    1.94005   0.65706   -1.000
 5025.00    1.82622   0.65993   -1.000
 5026.00    1.69641   0.66248   -1.000
 5027.00    1.60000   0.66511   -1.000
 5028.00    1.54770   0.66727   -1.000
 5029.00    1.49607   0.66909   -1.000
 5030.00    1.44187   0.67024   -1.000
 5031.00    1.39783   0.67061   -1.000
 5032.00    1.33651   0.67017   -1.000
 5033.00    1.26228   0.66874   -1.000
 5034.00    1.18060   0.66664   -1.000
 5035.00    1.09398   0.66379   -1.000
 5036.00    1.04219   0.66076   -1.000
 5037.00    1.08334   0.65759   -1.000
 5038.00    1.09894   0.65497   -1.000
 5039.00    1.09022   0.65284   -1.000
 5040.00    1.04288   0.65182   -1.000
 5041.00    1.01342   0.65150   -1.000
 5042.00    0.96750   0.65246   -1.000
 5043.00    0.92309   0.65370   -1.000
 5044.00    0.94053   0.65598   -1.000
 5045.00    0.99985   0.65782   -1.000
 5046.00    1.07709   0.66038   -1.000
 5047.00    1.09797   0.66197   -1.000
 5048.00    1.05141   0.66416   -1.000
 5049.00    0.93799   0.66534   -1.000
 5050.00    0.85457   0.66726   -1.000
 5051.00    0.87261   0.66845   -1.000
 5052.00    0.82661   0.67050   18.996
 5053.00    0.83694   0.67210   18.873
 5054.00    0.86193   0.67441   -1.000
 5055.00    0.83126   0.67625   18.940
 5056.00    0.81096   0.67833   19.175
 5057.00    0.75951   0.67971   19.810
 5058.00    0.74165   0.68077   20.052
 5059.00    0.79782   0.68089   19.333
 5060.00    0.73278   0.68032   20.164
 5061.00    0.71291   0.67885   20.447
 5062.00    0.70346   0.67668   20.582
 5063.00    0.73812   0.67395   20.089
 5064.00    0.72050   0.67084   20.334
 5065.00    0.74799   0.66764   19.967
 5066.00    0.77032   0.66450   19.669
 5067.00    0.73469   0.66163   20.139
 5068.00    0.73456   0.65907   20.140
 5069.00    0.72501   0.65686   20.279
 5070.00    0.68494   0.65496   20.861
 5071.00    0.74852   0.65323   19.953
 5072.00    0.72228   0.65157   20.318
 5073.00    0.70799   0.64987   20.520
 5074.00    0.70979   0.64801   20.496
 5075.00    0.70855   0.64607   20.508
 5076.00    0.70820   0.64392   20.509
 5077.00    0.66981   0.64193   21.092
 5078.00    0.66422   0.63993   21.189
 5079.00    0.74441   0.63850   20.009
 5080.00    0.73089   0.63735   20.189
 5081.00    0.71177   0.63717   20.460
 5082.00    0.69563   0.63743   20.702
 5083.00    0.69453   0.63877   20.717
 5084.00    0.70715   0.64047   20.526
 5085.00    0.69413   0.64299   20.718
 5086.00    0.72417   0.64554   20.283
 5087.00    0.73257   0.64842   20.171
 5088.00    0.71205   0.65090   20.460
 5089.00    0.71138   0.65315   20.463
 5090.00    0.67354   0.65467   21.032
 5091.00    0.64228   0.65555   21.538
 5092.00    0.66603   0.65562   21.154
 5093.00    0.70994   0.65488   20.483
 5094.00    0.71768   0.65354   20.375
 5095.00    0.69445   0.65151   20.712
 5096.00    0.65212   0.64929   21.373
 5097.00    0.62025   0.64665   21.912
 5098.00    0.67840   0.64427   20.956
 5099.00    0.70241   0.64172   20.588
 5100.00    0.70572   0.63969   20.545
 5101.00    0.71128   0.63765   20.471
 5102.00    0.69624   0.63619   20.686
 5103.00    0.70343   0.63477   20.578
 5104.00    0.67215   0.63389   21.049
 5105.00    0.63294   0.63312   21.696
 5106.00    0.62601   0.63291   21.812
 5107.00    0.65022   0.63291   21.395
 5108.00    0.71954   0.63350   20.335
 5109.00    0.72044   0.63440   20.319
 5110.00    0.66604   0.63582   21.134
 5111.00    0.62720   0.63746   21.782
 5112.00    0.66543   0.63937   21.152
 5113.00    0.65839   0.64118   21.257
 5114.00    0.64793   0.64281   21.430
 5115.00    0.64189   0.64393   21.530
 5116.00    0.68128   0.64440   20.888
 5117.00    0.66835   0.64404   21.082
 5118.00    0.65568   0.64282   21.282
 5119.00    0.69453   0.64078   20.679
 5120.00    0.66468   0.63800   21.134
 5121.00    0.65048   0.63480   21.361
 5122.00    0.64100   0.63131   21.510
 5123.00    0.71292   0.62799   20.404
 5124.00    0.70766   0.62493   20.469
 5125.00    0.68044   0.62256   20.884
 5126.00    0.66647   0.62084   21.095
 5127.00    0.67495   0.62005   20.949
 5128.00    0.66120   0.61994   21.158
 5129.00    0.67557   0.62064   20.926
 5130.00    0.67275   0.62173   20.970
 5131.00    0.68108   0.62323   20.835
 5132.00    0.68773   0.62468   20.732
 5133.00    0.69378   0.62608   20.645
 5134.00    0.67935   0.62704   20.841
 5135.00    0.67039   0.62764   20.985
 5136.00    0.65748   0.62762   21.191
 5137.00    0.66977   0.62716   20.988
 5138.00    0.67009   0.62616   20.981
 5139.00    0.64838   0.62483   21.321
 5140.00    0.68316   0.62314   20.770
 5141.00    0.71211   0.62132   20.339
 5142.00    0.69071   0.61938   20.652
 5143.00    0.67030   0.61745   20.952
 5144.00    0.69195   0.61561   20.620
 5145.00    0.71032   0.61388   20.336
 5146.00    0.70489   0.61245   20.410
 5147.00    0.67962   0.61122   20.784
 5148.00    0.64258   0.61051   21.371
 5149.00    0.66226   0.61007   21.042
 5150.00    0.66146   0.61038   21.061
 5151.00    0.66961   0.61094   20.923
 5152.00    0.68343   0.61230   20.690
 5153.00    0.66839   0.61370   20.924
 5154.00    0.65075   0.61562   21.200
 5155.00    0.64272   0.61707   21.320
 5156.00    0.63301   0.61846   21.472
 5157.00    0.61930   0.61859   21.711
 5158.00    0.65571   0.61794   21.103
 5159.00    0.69932   0.61532   20.427
 5160.00    0.62747   0.61144   21.556
 5161.00    0.65130   0.60529   21.145
 5162.00    0.69620   0.59797   20.448
 5163.00    0.67521   0.58875   20.759
 5164.00    0.66867   0.57907   20.853
 5165.00    0.68533   0.56853   20.588
 5166.00    0.67799   0.55855   20.697
 5167.00    0.70912   0.54902   -1.000
 5168.00    0.69349   0.54094   -1.000
 5169.00    0.65489   0.53446   21.053
 5170.00    0.65132   0.52972   21.106
 5171.00    0.69432   0.52713   -1.000
 5172.00    0.67280   0.52585   -1.000
 5173.00    0.62336   0.52656   21.562
 5174.00    0.62456   0.52763   21.547
 5175.00    0.65419   0.53007   21.039
 5176.00    0.65498   0.53187   21.016
 5177.00    0.64568   0.53447   21.160
 5178.00    0.61616   0.53584   21.657
 5179.00    0.60818   0.53793   21.792
 5180.00    0.66633   0.53883   20.819
 5181.00    0.67894   0.54087   20.623
 5182.00    0.64482   0.54218   21.155
 5183.00    0.60510   0.54514   21.834
 5184.00    0.60836   0.54772   21.762
 5185.00    0.63611   0.55207   21.282
 5186.00    0.64597   0.55604   21.116
 5187.00    0.68875   0.56136   20.450
 5188.00    0.69742   0.56600   20.315
 5189.00    0.69491   0.57137   20.344
 5190.00    0.73483   0.57579    0.000
 5191.00    0.76191   0.58042    0.000
 5192.00    0.75581   0.58406    0.000
 5193.00    0.73881   0.58764    0.000
 5194.00    0.73312   0.59022    0.000
 5195.00    0.75415   0.59259    0.000
 5196.00    0.86759   0.59377    0.000
 5197.00    0.93562   0.59458    0.000
 5198.00    0.99721   0.59386    0.000
 5199.00    0.95173   0.59274    0.000
 5200.00    0.87440   0.58987    0.000
 5201.00    0.82100   0.58693    0.000
 5202.00    0.72874   0.58250    0.000
 5203.00    0.64886   0.57877    0.000
 5204.00    0.65940   0.57430    0.000
 5205.00    0.65815   0.57152    0.000
 5206.00    0.60314   0.56893   21.771
 5207.00    0.59992   0.56874   21.816
 5208.00    0.61372   0.56936   21.562
 5209.00    0.62292   0.57244   21.413
 5210.00    0.65424   0.57635   20.885
 5211.00    0.66269   0.58206   20.747
 5212.00    0.67132   0.58808   20.606
 5213.00    0.66332   0.59484   20.724
 5214.00    0.64073   0.60117   21.085
 5215.00    0.61257   0.60720   21.561
 5216.00    0.60384   0.61220   21.709
 5217.00    0.64662   0.61619   20.972
 5218.00    0.63120   0.61890   21.226
 5219.00    0.63411   0.62032   21.163
 5220.00    0.63339   0.62064   21.182
 5221.00    0.61563   0.61984   21.477
 5222.00    0.66127   0.61853   20.718
 5223.00    0.69588   0.61657   20.195
 5224.00    0.63400   0.61493   21.155
 5225.00    0.63777   0.61317   21.080
 5226.00    0.63159   0.61252   21.185
 5227.00    0.66443   0.61207   20.645
 5228.00    0.68143   0.61312   20.384
 5229.00    0.65401   0.61442   20.809
 5230.00    0.64535   0.61708   20.934
 5231.00    0.65043   0.61987   20.851
 5232.00    0.62516   0.62351   21.270
 5233.00    0.66952   0.62707   20.549
 5234.00    0.67768   0.63086   20.416
 5235.00    0.66100   0.63441   20.668
 5236.00    0.66578   0.63759   20.591
 5237.00    0.63382   0.64036   21.102
 5238.00    0.66233   0.64237   20.632
 5239.00    0.68923   0.64377   20.224
 5240.00    0.66513   0.64426   20.587
 5241.00    0.63672   0.64398   21.027
 5242.00    0.61852   0.64295   21.342
 5243.00    0.64993   0.64116   20.810
 5244.00    0.62752   0.63899   21.176
 5245.00    0.66586   0.63633   20.550
 5246.00    0.66720   0.63374   20.517
 5247.00    0.63507   0.63113   21.040
 5248.00    0.62924   0.62893   21.127
 5249.00    0.61443   0.62721   21.379
 5250.00    0.61478   0.62594   21.367
 5251.00    0.65695   0.62541   20.673
 5252.00    0.63443   0.62498   21.026
 5253.00    0.63072   0.62523   21.081
 5254.00    0.64834   0.62487   20.797
 5255.00    0.61329   0.62483   21.375
 5256.00    0.63856   0.62339   20.949
 5257.00    0.62602   0.62181   21.145
 5258.00    0.66089   0.61832   20.587
 5259.00    0.69355   0.61442   20.092
 5260.00    0.67482   0.60875   20.352
 5261.00    0.63095   0.60272   21.051
 5262.00    0.65603   0.59582   20.642
 5263.00    0.69156   0.58890   20.107
 5264.00    0.68479   0.58254   20.205
 5265.00    0.64827   0.57654   20.749
 5266.00    0.64761   0.57260   20.750
 5267.00    0.67122   0.56923   20.387
 5268.00    0.70654   0.56886   19.867
 5269.00    0.70669   0.56909   19.865
 5270.00    0.71143   0.57235   19.792
 5271.00    0.72928   0.57603   -1.000
 5272.00    0.71119   0.58189   19.776
 5273.00    0.64282   0.58792   20.808
 5274.00    0.62628   0.59479   21.073
 5275.00    0.63881   0.60156   20.852
 5276.00    0.60339   0.60804   21.446
 5277.00    0.63223   0.61414   20.952
 5278.00    0.59335   0.61949   21.625
 5279.00    0.62534   0.62429   21.061
 5280.00    0.64289   0.62855   20.775
 5281.00    0.59710   0.63223   21.543
 5282.00    0.61675   0.63584   21.196
 5283.00    0.65211   0.63893   20.611
 5284.00    0.66722   0.64213   20.377
 5285.00    0.62274   0.64491   21.074
 5286.00    0.63522   0.64746   20.860
 5287.00    0.65677   0.64965   20.524
 5288.00    0.62268   0.65090   21.073
 5289.00    0.66071   0.65193   20.447
 5290.00    0.64054   0.65133   20.761
 5291.00    0.60222   0.65083   21.404
 5292.00    0.65856   0.64844   20.472
 5293.00    0.66350   0.64665   20.384
 5294.00    0.59098   0.64331   21.598
 5295.00    0.62497   0.64118   21.001
 5296.00    0.64305   0.63825   20.702
 5297.00    0.65928   0.63693   20.429
 5298.00    0.66241   0.63567   20.384
 5299.00    0.62763   0.63605   20.936
 5300.00    0.62621   0.63701   20.949
