###################################################################
## OUTPUT of StarlightChains_v04.for    [Cid@UFSC - 01/Apr/2007] ##
###################################################################

## Some input info
M33_LS5_20211119f_2.spec                 [arq_obs]
Base.BC03.N                              [arq_base]
Mask.EmLines_CHAOS_focusbluefit.gm       [arq_masks]
StCv04.C11.config                        [arq_config]
   45                                    [N_base]
    0                                    [N_YAV_components = # of components with extra extinction!]
    0                                    [i_FitPowerLaw (1/0 = Yes/No)]
-9.99                                    [alpha_PowerLaw]
CCM                                      [red_law_option]
 1.458241                                [q_norm = A(l_norm)/A(V)]

## (Re)Sampling Parameters
 3100.00                                 [l_ini (A)]
 5300.00                                 [l_fin (A)]
    1.00                                 [dl    (A)]     (OBS: dl_cushion =    50.00 A)

## Normalization info
 4020.00                                 [l_norm (A) - for base]
 4010.00                                 [llow_norm (A) - window for f_obs]
 4060.00                                 [lupp_norm (A) - window for f_obs]
3.258430E-15                             [fobs_norm (in input units)]

## S/N
 4730.00                                 [llow_SN (A) - window for S/N]
 4780.00                                 [lupp_SN (A) - window for S/N]
 113.247                                 [S/N in S/N window]
 173.994                                 [S/N in norm. window]
  52.127                                 [S/N_err in S/N window]
  80.089                                 [S/N_err in norm. window]
  1.0000                                 [fscale_chi2]

## etc...
    -2007207                             [idum_orig]
  1493                                   [NOl_eff]
  1427                                   [Nl_eff]
    66    NSIGMA                         [Ntot_cliped & clip_method]
   536480                                [Nglobal_steps]
   7                                     [N_chains]
   5                                     [NEX0s_base = N_base in EX0s-fits]
 0   0   1        0   2.0   1.088E+02    [Clip-Bug, RC-Crash & Burn-In warning-flags, n_censored_weights, wei_nsig_threshold & wei_limit]
     6      5.168      5.136      0.032  [idt_all, wdt_TotTime, wdt_UsrTime & wdt_SysTime (sec)]

## Synthesis Results - Best model ##

 1.33479E+00                             [chi2/Nl_eff]
     2.02879                             [adev (%)]

   103.74893                             [sum-of-x (%)]
 6.18130E-15                             [Flux_tot (units of input spectrum!)]
 2.83261E-11                             [Mini_tot (???)]
 1.45881E-11                             [Mcor_tot (???)]

 105.14                                  [v0_min  (km/s)]
 122.38                                  [vd_min  (km/s)]
 0.4493                                  [AV_min  (mag)]
 0.0000                                  [YAV_min (mag)]

# j     x_j(%)      Mini_j(%)     Mcor_j(%)     age_j(yr)     Z_j      (L/M)_j    YAV?  Mstars   component_j        a/Fe...       SSP_chi2r SSP_adev(%)   SSP_AV   SSP_x(%)
  1     80.3052     1.5162E+00    2.9441E+00    1.000000E+06  0.00400  1.114E-02    0   1.0000   age020_m42            0.0000     1.7652E+00     2.2757   0.7746   103.3069
  2      0.0000     0.0000E+00    0.0000E+00    3.160000E+06  0.00400  4.073E-02    0   0.9999   age045_m42            0.0000     2.6860E+01     9.3744  -0.3367   118.4030
  3      0.0000     0.0000E+00    0.0000E+00    5.010000E+06  0.00400  2.534E-02    0   0.9488   age055_m42            0.0000     1.1475E+01     6.1146   0.1364   111.8669
  4      0.0000     0.0000E+00    0.0000E+00    1.000000E+07  0.00400  1.271E-02    0   0.8862   age070_m42            0.0000     1.7960E+01     7.2924  -0.5437   115.0809
  5      0.0000     0.0000E+00    0.0000E+00    2.512000E+07  0.00400  5.070E-03    0   0.8174   age090_m42            0.0000     2.0552E+01     7.9132  -0.6993   116.9388
  6      0.0000     0.0000E+00    0.0000E+00    4.000000E+07  0.00400  3.505E-03    0   0.7851   age104_m42            0.0000     2.7772E+01     9.4906  -1.0000   119.0180
  7      0.0000     0.0000E+00    0.0000E+00    1.015200E+08  0.00400  2.268E-03    0   0.7207   age116_m42            0.0000     1.1666E+02    18.8008  -1.0000   124.3920
  8      0.0000     0.0000E+00    0.0000E+00    2.861200E+08  0.00400  1.079E-03    0   0.6613   age125_m42            0.0000     1.6481E+02    21.1544  -1.0000   117.8244
  9      0.0000     0.0000E+00    0.0000E+00    6.405400E+08  0.00400  5.077E-04    0   0.6197   age132_m42            0.0000     2.0673E+02    24.1178  -1.0000   114.8080
 10      0.0000     0.0000E+00    0.0000E+00    9.047900E+08  0.00400  3.535E-04    0   0.6024   age135_m42            0.0000     2.1664E+02    25.5424  -1.0000   109.8567
 11      0.0000     0.0000E+00    0.0000E+00    1.434000E+09  0.00400  1.910E-04    0   0.5716   age139_m42            0.0000     2.7094E+02    29.8209  -1.0000    97.9426
 12      0.0000     0.0000E+00    0.0000E+00    2.500000E+09  0.00400  9.818E-05    0   0.5463   age150_m42            0.0000     3.1101E+02    33.2440  -1.0000    88.7219
 13      0.0000     0.0000E+00    0.0000E+00    5.000000E+09  0.00400  4.718E-05    0   0.5228   age161_m42            0.0000     3.4275E+02    35.3855  -1.0000    83.0718
 14      0.0000     0.0000E+00    0.0000E+00    1.100000E+10  0.00400  2.205E-05    0   0.4980   age185_m42            0.0000     4.0686E+02    38.6850  -1.0000    75.8136
 15      0.0000     0.0000E+00    0.0000E+00    1.300000E+10  0.00400  1.883E-05    0   0.4927   age193_m42            0.0000     4.1199E+02    38.9270  -1.0000    75.3945
 16      0.0000     0.0000E+00    0.0000E+00    1.000000E+06  0.02000  1.989E-02    0   1.0000   age020_m62            0.0000     2.4035E+00     2.6001   0.7399   104.0625
 17     19.6763     1.0972E-01    2.1002E-01    3.160000E+06  0.02000  3.772E-02    0   0.9858   age045_m62            0.0000     3.6647E+00     3.3377   0.5696   106.8588
 18      0.0000     0.0000E+00    0.0000E+00    5.010000E+06  0.02000  3.227E-02    0   0.9342   age055_m62            0.0000     2.2493E+01     8.7411  -0.0797   115.2735
 19      0.0000     0.0000E+00    0.0000E+00    1.000000E+07  0.02000  1.011E-02    0   0.8751   age070_m62            0.0000     6.1782E+00     4.1147  -0.3181   111.1973
 20      0.0000     0.0000E+00    0.0000E+00    2.512000E+07  0.02000  4.206E-03    0   0.8099   age090_m62            0.0000     9.2275E+00     5.2618  -0.4999   111.9660
 21      0.0000     0.0000E+00    0.0000E+00    4.000000E+07  0.02000  3.373E-03    0   0.7799   age104_m62            0.0000     3.5772E+01    10.7398  -0.8673   120.5789
 22      0.0000     0.0000E+00    0.0000E+00    1.015200E+08  0.02000  1.878E-03    0   0.7221   age116_m62            0.0000     1.0222E+02    17.9950  -1.0000   125.7824
 23      0.0000     0.0000E+00    0.0000E+00    2.861200E+08  0.02000  8.869E-04    0   0.6700   age125_m62            0.0000     2.0317E+02    23.5500  -1.0000   122.1138
 24      0.0000     0.0000E+00    0.0000E+00    6.405400E+08  0.02000  3.657E-04    0   0.6322   age132_m62            0.0000     2.5907E+02    27.7921  -1.0000   111.1081
 25      0.0000     0.0000E+00    0.0000E+00    9.047900E+08  0.02000  2.312E-04    0   0.6152   age135_m62            0.0000     2.8676E+02    30.1950  -1.0000   102.7511
 26      0.0000     0.0000E+00    0.0000E+00    1.434000E+09  0.02000  1.168E-04    0   0.5865   age139_m62            0.0000     3.3244E+02    34.2402  -1.0000    89.9482
 27      0.0000     0.0000E+00    0.0000E+00    2.500000E+09  0.02000  5.505E-05    0   0.5610   age150_m62            0.0000     4.0729E+02    38.4315  -1.0000    79.7637
 28      0.0000     0.0000E+00    0.0000E+00    5.000000E+09  0.02000  2.596E-05    0   0.5353   age161_m62            0.0000     4.9077E+02    42.1348  -1.0000    72.3045
 29      0.8639     1.5544E+01    1.5402E+01    1.100000E+10  0.02000  1.169E-05    0   0.5103   age185_m62            0.0000     5.7923E+02    45.5841  -1.0000    65.6454
 30      1.0159     2.2048E+01    2.1607E+01    1.300000E+10  0.02000  9.691E-06    0   0.5047   age193_m62            0.0000     5.9102E+02    46.0062  -1.0000    64.8869
 31      0.0000     0.0000E+00    0.0000E+00    1.000000E+06  0.05000  2.651E-02    0   0.9998   age020_m72            0.0000     2.8083E+00     2.7673   0.7120   104.9794
 32      0.0000     0.0000E+00    0.0000E+00    3.160000E+06  0.05000  4.817E-02    0   0.9577   age045_m72            0.0000     9.7398E+00     5.6141   0.3254   111.0595
 33      0.0000     0.0000E+00    0.0000E+00    5.010000E+06  0.05000  3.101E-02    0   0.9147   age055_m72            0.0000     1.1349E+01     5.9621   0.0321   113.3404
 34      0.0000     0.0000E+00    0.0000E+00    1.000000E+07  0.05000  8.954E-03    0   0.8524   age070_m72            0.0000     1.0676E+01     5.7077   0.2110   112.1280
 35      0.0000     0.0000E+00    0.0000E+00    2.512000E+07  0.05000  4.207E-03    0   0.7902   age090_m72            0.0000     2.7010E+01     9.5460  -0.2966   118.0276
 36      0.0000     0.0000E+00    0.0000E+00    4.000000E+07  0.05000  3.198E-03    0   0.7618   age104_m72            0.0000     6.7334E+01    14.6899  -0.8692   125.0600
 37      0.0000     0.0000E+00    0.0000E+00    1.015200E+08  0.05000  1.716E-03    0   0.7092   age116_m72            0.0000     1.2037E+02    19.9105  -1.0000   126.9515
 38      0.0000     0.0000E+00    0.0000E+00    2.861200E+08  0.05000  7.047E-04    0   0.6618   age125_m72            0.0000     2.2620E+02    24.7319  -1.0000   118.1821
 39      0.0000     0.0000E+00    0.0000E+00    6.405400E+08  0.05000  2.633E-04    0   0.6253   age132_m72            0.0000     3.0060E+02    30.6504  -1.0000   102.5312
 40      0.0000     0.0000E+00    0.0000E+00    9.047900E+08  0.05000  1.484E-04    0   0.6088   age135_m72            0.0000     3.5968E+02    35.3056  -1.0000    88.3472
 41      0.0000     0.0000E+00    0.0000E+00    1.434000E+09  0.05000  7.827E-05    0   0.5847   age139_m72            0.0000     4.4078E+02    39.8107  -1.0000    77.3831
 42      0.0000     0.0000E+00    0.0000E+00    2.500000E+09  0.05000  3.759E-05    0   0.5583   age150_m72            0.0000     5.1395E+02    43.1076  -1.0000    70.2880
 43      0.0000     0.0000E+00    0.0000E+00    5.000000E+09  0.05000  1.548E-05    0   0.5320   age161_m72            0.0000     5.9892E+02    46.3512  -1.0000    62.5408
 44      1.8876     6.0782E+01    5.9837E+01    1.100000E+10  0.05000  6.532E-06    0   0.5070   age185_m72            0.0000     6.8837E+02    49.3570  -1.0000    55.2923
 45      0.0000     0.0000E+00    0.0000E+00    1.300000E+10  0.05000  5.316E-06    0   0.5018   age193_m72            0.0000     7.1719E+02    50.2426  -1.0000    53.1740


## Synthesis Results - Average & Chains ##

# j      x_j: min, <> & last-chain-values for 1 ...  7 chains
  1     80.3052     85.9008     85.7497     86.3911     85.0776     86.2351     86.2519     85.0415     86.3363
  2      0.0000      0.0052      0.0000      0.0000      0.0000      0.0000      0.0000      0.0000      0.0000
  3      0.0000      0.0256      0.0000      0.0000      0.0020      0.0000      0.0000      0.0000      0.0000
  4      0.0000      0.0108      0.0000      0.0000      0.0000      0.0000      0.0000      0.0000      0.0000
  5      0.0000      0.0071      0.0000      0.0000      0.0000      0.0000      0.0000      0.0000      0.0000
  6      0.0000      0.0062      0.0000      0.0000      0.0000      0.0000      0.0000      0.0000      0.0180
  7      0.0000      0.0020      0.0000      0.0000      0.0000      0.0000      0.0000      0.0000      0.0000
  8      0.0000      0.0014      0.0000      0.0000      0.0000      0.0000      0.0000      0.0000      0.0000
  9      0.0000      0.0002      0.0000      0.0000      0.0000      0.0000      0.0000      0.0000      0.0000
 10      0.0000      0.0017      0.0000      0.0000      0.0000      0.0000      0.0000      0.0000      0.0000
 11      0.0000      0.0024      0.0000      0.0000      0.0000      0.0000      0.0000      0.0000      0.0000
 12      0.0000      0.0065      0.0090      0.0000      0.0000      0.0000      0.0000      0.0000      0.0000
 13      0.0000      0.0098      0.0000      0.0000      0.0000      0.0000      0.0000      0.0532      0.0000
 14      0.0000      0.0215      0.0000      0.0000      0.0000      0.0194      0.0000      0.0000      0.0000
 15      0.0000      0.0160      0.1792      0.0000      0.0000      0.0000      0.0000      0.0000      0.0237
 16      0.0000      0.0918      0.0000      0.0000      0.0000      0.0000      0.0000      0.2331      0.0000
 17     19.6763     13.6660     14.0682     13.7638     15.1593     13.8048     13.7729     14.7780     13.8125
 18      0.0000      0.0119      0.0000      0.0000      0.0000      0.0000      0.0000      0.0000      0.0000
 19      0.0000      0.0265      0.0000      0.0000      0.0000      0.0301      0.0000      0.0000      0.0000
 20      0.0000      0.0351      0.0000      0.0000      0.0000      0.0000      0.0000      0.0311      0.0000
 21      0.0000      0.0056      0.0000      0.0000      0.0000      0.0000      0.0000      0.0000      0.0000
 22      0.0000      0.0013      0.0000      0.0000      0.0000      0.0000      0.0000      0.0000      0.0000
 23      0.0000      0.0012      0.0000      0.0000      0.0000      0.0000      0.0000      0.0000      0.0000
 24      0.0000      0.0014      0.0000      0.0000      0.0000      0.0000      0.0000      0.0000      0.0000
 25      0.0000      0.0015      0.0000      0.0000      0.0000      0.0000      0.0000      0.0000      0.0000
 26      0.0000      0.0069      0.0000      0.0000      0.0282      0.0000      0.0000      0.0000      0.0000
 27      0.0000      0.0082      0.0000      0.0000      0.0000      0.0000      0.0000      0.0000      0.0000
 28      0.0000      0.0406      0.0000      0.0000      0.0865      0.0000      0.0811      0.0000      0.0000
 29      0.8639      0.6617      0.7931      0.6112      0.5030      0.7079      0.7478      0.5491      0.7325
 30      1.0159      1.0402      1.0281      1.0432      1.0416      1.0504      0.8684      1.2579      1.1247
 31      0.0000      0.1165      0.0333      0.0000      0.0090      0.0000      0.0000      0.0000      0.0000
 32      0.0000      0.1599      0.0000      0.0000      0.0000      0.0049      0.0000      0.0000      0.0000
 33      0.0000      0.0430      0.0000      0.0000      0.0000      0.0000      0.0000      0.0000      0.0144
 34      0.0000      0.0161      0.0000      0.0000      0.0000      0.0000      0.0064      0.0000      0.0000
 35      0.0000      0.0087      0.0000      0.0000      0.0000      0.0000      0.0000      0.0000      0.0000
 36      0.0000      0.0014      0.0000      0.0000      0.0000      0.0000      0.0000      0.0000      0.0000
 37      0.0000      0.0013      0.0000      0.0000      0.0000      0.0000      0.0000      0.0000      0.0000
 38      0.0000      0.0011      0.0000      0.0000      0.0000      0.0000      0.0000      0.0000      0.0000
 39      0.0000      0.0009      0.0000      0.0000      0.0000      0.0000      0.0000      0.0000      0.0000
 40      0.0000      0.0031      0.0000      0.0000      0.0000      0.0000      0.0000      0.0000      0.0000
 41      0.0000      0.0112      0.0000      0.0000      0.0000      0.0000      0.0000      0.0000      0.0000
 42      0.0000      0.0550      0.2171      0.0352      0.0551      0.0871      0.0000      0.0000      0.0000
 43      0.0000      0.0313      0.0000      0.2906      0.0000      0.0210      0.0000      0.0000      0.0000
 44      1.8876      1.0177      1.3000      0.8790      1.0033      1.2448      1.1267      1.0539      0.9919
 45      0.0000      0.4821      0.1680      0.5326      0.6414      0.2939      0.6608      0.5409      0.4993

# j      m_j: min, <> & last-chain-values for 1 ...  7 chains
  1  2.9441E+00  3.5102E+00  3.4837E+00  3.5551E+00  3.3883E+00  3.5102E+00  3.2604E+00  3.3052E+00  3.4690E+00
  2  0.0000E+00  5.7872E-05  0.0000E+00  0.0000E+00  0.0000E+00  0.0000E+00  0.0000E+00  0.0000E+00  0.0000E+00
  3  0.0000E+00  4.3641E-04  0.0000E+00  0.0000E+00  3.3008E-05  0.0000E+00  0.0000E+00  0.0000E+00  0.0000E+00
  4  0.0000E+00  3.4389E-04  0.0000E+00  0.0000E+00  0.0000E+00  0.0000E+00  0.0000E+00  0.0000E+00  0.0000E+00
  5  0.0000E+00  5.2371E-04  0.0000E+00  0.0000E+00  0.0000E+00  0.0000E+00  0.0000E+00  0.0000E+00  0.0000E+00
  6  0.0000E+00  6.3101E-04  0.0000E+00  0.0000E+00  0.0000E+00  0.0000E+00  0.0000E+00  0.0000E+00  1.8057E-03
  7  0.0000E+00  2.8248E-04  0.0000E+00  0.0000E+00  0.0000E+00  0.0000E+00  0.0000E+00  0.0000E+00  0.0000E+00
  8  0.0000E+00  3.9622E-04  0.0000E+00  0.0000E+00  0.0000E+00  0.0000E+00  0.0000E+00  0.0000E+00  0.0000E+00
  9  0.0000E+00  1.3658E-04  0.0000E+00  0.0000E+00  0.0000E+00  0.0000E+00  0.0000E+00  0.0000E+00  0.0000E+00
 10  0.0000E+00  1.3101E-03  0.0000E+00  0.0000E+00  0.0000E+00  0.0000E+00  0.0000E+00  0.0000E+00  0.0000E+00
 11  0.0000E+00  3.2201E-03  0.0000E+00  0.0000E+00  0.0000E+00  0.0000E+00  0.0000E+00  0.0000E+00  0.0000E+00
 12  0.0000E+00  1.6427E-02  2.2565E-02  0.0000E+00  0.0000E+00  0.0000E+00  0.0000E+00  0.0000E+00  0.0000E+00
 13  0.0000E+00  4.9373E-02  0.0000E+00  0.0000E+00  0.0000E+00  0.0000E+00  0.0000E+00  2.5513E-01  0.0000E+00
 14  0.0000E+00  2.2058E-01  0.0000E+00  0.0000E+00  0.0000E+00  1.9918E-01  0.0000E+00  0.0000E+00  0.0000E+00
 15  0.0000E+00  1.9036E-01  2.1221E+00  0.0000E+00  0.0000E+00  0.0000E+00  0.0000E+00  0.0000E+00  2.7807E-01
 16  0.0000E+00  2.1003E-03  0.0000E+00  0.0000E+00  0.0000E+00  0.0000E+00  0.0000E+00  5.0730E-03  0.0000E+00
 17  2.1002E-01  1.6259E-01  1.6640E-01  1.6490E-01  1.7577E-01  1.6360E-01  1.5158E-01  1.6722E-01  1.6158E-01
 18  0.0000E+00  1.5689E-04  0.0000E+00  0.0000E+00  0.0000E+00  0.0000E+00  0.0000E+00  0.0000E+00  0.0000E+00
 19  0.0000E+00  1.0445E-03  0.0000E+00  0.0000E+00  0.0000E+00  1.1833E-03  0.0000E+00  0.0000E+00  0.0000E+00
 20  0.0000E+00  3.0728E-03  0.0000E+00  0.0000E+00  0.0000E+00  0.0000E+00  0.0000E+00  2.5902E-03  0.0000E+00
 21  0.0000E+00  5.8639E-04  0.0000E+00  0.0000E+00  0.0000E+00  0.0000E+00  0.0000E+00  0.0000E+00  0.0000E+00
 22  0.0000E+00  2.2737E-04  0.0000E+00  0.0000E+00  0.0000E+00  0.0000E+00  0.0000E+00  0.0000E+00  0.0000E+00
 23  0.0000E+00  4.2020E-04  0.0000E+00  0.0000E+00  0.0000E+00  0.0000E+00  0.0000E+00  0.0000E+00  0.0000E+00
 24  0.0000E+00  1.1018E-03  0.0000E+00  0.0000E+00  0.0000E+00  0.0000E+00  0.0000E+00  0.0000E+00  0.0000E+00
 25  0.0000E+00  1.8328E-03  0.0000E+00  0.0000E+00  0.0000E+00  0.0000E+00  0.0000E+00  0.0000E+00  0.0000E+00
 26  0.0000E+00  1.5821E-02  0.0000E+00  0.0000E+00  6.2720E-02  0.0000E+00  0.0000E+00  0.0000E+00  0.0000E+00
 27  0.0000E+00  3.8192E-02  0.0000E+00  0.0000E+00  0.0000E+00  0.0000E+00  0.0000E+00  0.0000E+00  0.0000E+00
 28  0.0000E+00  3.8142E-01  0.0000E+00  0.0000E+00  7.9177E-01  0.0000E+00  7.0438E-01  0.0000E+00  0.0000E+00
 29  1.5402E+01  1.3149E+01  1.5669E+01  1.2231E+01  9.7412E+00  1.4013E+01  1.3746E+01  1.0378E+01  1.4312E+01
 30  2.1607E+01  2.4661E+01  2.4233E+01  2.4906E+01  2.4068E+01  2.4806E+01  1.9044E+01  2.8363E+01  2.6219E+01
 31  0.0000E+00  1.9995E-03  5.6776E-04  0.0000E+00  1.5107E-04  0.0000E+00  0.0000E+00  0.0000E+00  0.0000E+00
 32  0.0000E+00  1.4469E-03  0.0000E+00  0.0000E+00  0.0000E+00  4.4146E-05  0.0000E+00  0.0000E+00  0.0000E+00
 33  0.0000E+00  5.7799E-04  0.0000E+00  0.0000E+00  0.0000E+00  0.0000E+00  0.0000E+00  0.0000E+00  1.8995E-04
 34  0.0000E+00  6.9754E-04  0.0000E+00  0.0000E+00  0.0000E+00  0.0000E+00  2.5797E-04  0.0000E+00  0.0000E+00
 35  0.0000E+00  7.4519E-04  0.0000E+00  0.0000E+00  0.0000E+00  0.0000E+00  0.0000E+00  0.0000E+00  0.0000E+00
 36  0.0000E+00  1.5560E-04  0.0000E+00  0.0000E+00  0.0000E+00  0.0000E+00  0.0000E+00  0.0000E+00  0.0000E+00
 37  0.0000E+00  2.4413E-04  0.0000E+00  0.0000E+00  0.0000E+00  0.0000E+00  0.0000E+00  0.0000E+00  0.0000E+00
 38  0.0000E+00  4.6191E-04  0.0000E+00  0.0000E+00  0.0000E+00  0.0000E+00  0.0000E+00  0.0000E+00  0.0000E+00
 39  0.0000E+00  9.9985E-04  0.0000E+00  0.0000E+00  0.0000E+00  0.0000E+00  0.0000E+00  0.0000E+00  0.0000E+00
 40  0.0000E+00  5.7915E-03  0.0000E+00  0.0000E+00  0.0000E+00  0.0000E+00  0.0000E+00  0.0000E+00  0.0000E+00
 41  0.0000E+00  3.8015E-02  0.0000E+00  0.0000E+00  0.0000E+00  0.0000E+00  0.0000E+00  0.0000E+00  0.0000E+00
 42  0.0000E+00  3.7194E-01  1.4593E+00  2.3997E-01  3.6276E-01  5.8639E-01  0.0000E+00  0.0000E+00  0.0000E+00
 43  0.0000E+00  4.8893E-01  0.0000E+00  4.5790E+00  0.0000E+00  3.2653E-01  0.0000E+00  0.0000E+00  0.0000E+00
 44  5.9837E+01  3.5960E+01  4.5668E+01  3.1275E+01  3.4550E+01  4.3813E+01  3.6828E+01  3.5418E+01  3.4462E+01
 45  0.0000E+00  2.0716E+01  7.1755E+00  2.3048E+01  2.6860E+01  1.2581E+01  2.6266E+01  2.2107E+01  2.1097E+01

# AV, chi2 & Mass for <> & i_chain = 1 ...  7 solutions
AV       0.4493      0.4881      0.4753      0.4898      0.4877      0.4891      0.4798      0.4823      0.4909
chi2 1.3348E+00  1.3496E+00  1.3447E+00  1.3442E+00  1.3423E+00  1.3450E+00  1.3412E+00  1.3434E+00  1.3435E+00
Mass 1.4588E-11  1.3787E-11  1.3632E-11  1.3722E-11  1.4140E-11  1.3861E-11  1.4740E-11  1.4383E-11  1.4075E-11
 105.14                                  [v0_min (km/s) before EX0s...]
 122.38                                  [vd_min (km/s) before EX0s...]


## Synthetic spectrum (Best Model) ##l_obs f_obs f_syn wei
 2201    [Nl_obs]
 3100.00    1.85057   1.98855   10.067
 3101.00    1.90905   1.97952   10.038
 3102.00    1.86469   1.97012   10.274
 3103.00    1.84569   1.96428   10.450
 3104.00    1.74502   1.96230   10.855
 3105.00    1.74007   1.96221   10.978
 3106.00    1.73987   1.96262   11.061
 3107.00    1.67225   1.96310   -1.000
 3108.00    1.89082   1.96359   10.812
 3109.00    1.89458   1.96408   10.912
 3110.00    1.83631   1.96457   11.173
 3111.00    1.79624   1.96506   11.376
 3112.00    1.80145   1.96555   11.451
 3113.00    1.75085   1.96605   11.679
 3114.00    1.76129   1.96654   11.730
 3115.00    1.76984   1.96703   11.810
 3116.00    1.77901   1.96752   11.829
 3117.00    1.74367   1.96794   12.013
 3118.00    1.68213   1.96788   -1.000
 3119.00    1.67218   1.96573   -1.000
 3120.00    1.75077   1.95880   12.246
 3121.00    1.88830   1.94672   11.840
 3122.00    1.86045   1.93412   11.984
 3123.00    1.80561   1.92618   12.258
 3124.00    1.82251   1.92332   12.279
 3125.00    1.91397   1.92300   12.027
 3126.00    1.89234   1.92337   12.169
 3127.00    1.92155   1.92384   12.108
 3128.00    1.91637   1.92432   12.228
 3129.00    1.84904   1.92480   12.531
 3130.00    1.83130   1.92528   12.632
 3131.00    1.86515   1.92576   12.589
 3132.00    1.88084   1.92624   12.607
 3133.00    1.80640   1.92672   12.934
 3134.00    1.72534   1.92720   13.320
 3135.00    1.78473   1.92768   13.208
 3136.00    1.71285   1.92815   13.621
 3137.00    1.67122   1.92858   -1.000
 3138.00    1.72619   1.92861   13.782
 3139.00    1.71150   1.92699   13.958
 3140.00    1.72596   1.92162   14.035
 3141.00    1.74687   1.91222   14.084
 3142.00    1.79337   1.90239   14.004
 3143.00    1.79809   1.89617   14.123
 3144.00    1.81870   1.89395   14.173
 3145.00    1.77192   1.89375   14.444
 3146.00    1.79802   1.89412   14.446
 3147.00    1.80846   1.89458   14.486
 3148.00    1.83705   1.89505   14.499
 3149.00    1.81950   1.89552   14.720
 3150.00    1.85932   1.89598   14.640
 3151.00    1.85484   1.89645   14.792
 3152.00    1.84444   1.89692   14.969
 3153.00    1.81809   1.89738   15.167
 3154.00    1.81516   1.89785   15.325
 3155.00    1.82962   1.89831   15.331
 3156.00    1.81895   1.89877   15.459
 3157.00    1.77783   1.89917   15.764
 3158.00    1.69922   1.89914   -1.000
 3159.00    1.71638   1.89730   16.251
 3160.00    1.74197   1.89137   16.216
 3161.00    1.72147   1.88107   16.423
 3162.00    1.84264   1.87028   15.944
 3163.00    1.89106   1.86338   15.767
 3164.00    1.85488   1.86083   15.995
 3165.00    1.80151   1.86053   16.307
 3166.00    1.82623   1.86086   16.281
 3167.00    1.88288   1.86130   16.149
 3168.00    1.87976   1.86175   16.191
 3169.00    1.87389   1.86220   16.251
 3170.00    1.88791   1.86264   16.289
 3171.00    1.87423   1.86309   16.412
 3172.00    1.84697   1.86354   16.592
 3173.00    1.79102   1.86398   16.909
 3174.00    1.78493   1.86443   17.015
 3175.00    1.80548   1.86487   16.975
 3176.00    1.73875   1.86531   17.365
 3177.00    1.68990   1.86569   17.664
 3178.00    1.70082   1.86560   17.656
 3179.00    1.70609   1.86360   17.709
 3180.00    1.70175   1.85732   17.777
 3181.00    1.74509   1.84648   17.620
 3182.00    1.77768   1.83511   17.526
 3183.00    1.77709   1.82775   17.615
 3184.00    1.80013   1.82496   17.584
 3185.00    1.80353   1.82457   17.615
 3186.00    1.83911   1.82486   17.558
 3187.00    1.91162   1.82528   17.238
 3188.00    1.91879   1.82570   17.254
 3189.00    1.90234   1.82613   17.448
 3190.00    1.88510   1.82655   17.599
 3191.00    1.82990   1.82698   17.974
 3192.00    1.82003   1.82740   18.202
 3193.00    1.78177   1.82782   18.484
 3194.00    1.78494   1.82824   18.510
 3195.00    1.76211   1.82866   18.729
 3196.00    1.70907   1.82907   19.095
 3197.00    1.66410   1.82942   -1.000
 3198.00    1.62239   1.82930   -1.000
 3199.00    1.64010   1.82721   -1.000
 3200.00    1.66961   1.82078   19.780
 3201.00    1.61090   1.80975   -1.000
 3202.00    1.55005   1.79815   -1.000
 3203.00    1.55268   1.79058   -1.000
 3204.00    1.58877   1.78763   -1.000
 3205.00    1.57379   1.78716   -1.000
 3206.00    1.58993   1.78743   -1.000
 3207.00    1.65978   1.78781   20.292
 3208.00    1.67679   1.78821   20.244
 3209.00    1.71284   1.78861   20.073
 3210.00    1.74130   1.78901   19.972
 3211.00    1.76609   1.78941   19.829
 3212.00    1.81325   1.78981   19.518
 3213.00    1.85693   1.79020   19.235
 3214.00    1.86196   1.79060   19.234
 3215.00    1.81748   1.79099   19.469
 3216.00    1.82021   1.79138   19.461
 3217.00    1.83042   1.79173   19.462
 3218.00    1.83112   1.79179   19.475
 3219.00    1.81408   1.79064   19.520
 3220.00    1.82838   1.78683   19.399
 3221.00    1.86706   1.78024   19.197
 3222.00    1.80421   1.77328   19.530
 3223.00    1.75830   1.76874   19.843
 3224.00    1.75085   1.76703   19.977
 3225.00    1.72988   1.76686   20.217
 3226.00    1.72189   1.76715   20.313
 3227.00    1.73809   1.76752   20.287
 3228.00    1.69879   1.76790   20.580
 3229.00    1.66670   1.76827   20.845
 3230.00    1.66376   1.76865   20.948
 3231.00    1.66164   1.76902   21.059
 3232.00    1.66790   1.76940   21.086
 3233.00    1.70929   1.76977   20.884
 3234.00    1.75247   1.77015   20.708
 3235.00    1.72564   1.77052   20.875
 3236.00    1.70981   1.77088   20.984
 3237.00    1.76423   1.77120   20.698
 3238.00    1.76760   1.77118   20.703
 3239.00    1.73726   1.76979   20.919
 3240.00    1.79314   1.76538   20.577
 3241.00    1.80369   1.75783   20.487
 3242.00    1.76596   1.74985   20.694
 3243.00    1.75443   1.74457   20.744
 3244.00    1.72078   1.74250   20.923
 3245.00    1.72532   1.74221   20.850
 3246.00    1.77544   1.74245   20.484
 3247.00    1.78998   1.74280   20.399
 3248.00    1.76372   1.74315   20.591
 3249.00    1.75051   1.74351   20.736
 3250.00    1.73160   1.74386   20.855
 3251.00    1.74607   1.74421   20.768
 3252.00    1.74664   1.74456   20.789
 3253.00    1.70167   1.74491   21.104
 3254.00    1.68505   1.74526   21.288
 3255.00    1.68286   1.74561   21.378
 3256.00    1.68760   1.74595   21.433
 3257.00    1.69732   1.74623   21.437
 3258.00    1.68805   1.74610   21.604
 3259.00    1.69203   1.74428   21.700
 3260.00    1.68940   1.73880   21.740
 3261.00    1.69852   1.72952   21.753
 3262.00    1.71490   1.71970   21.775
 3263.00    1.68864   1.71313   22.006
 3264.00    1.70081   1.71044   22.043
 3265.00    1.71638   1.70995   22.084
 3266.00    1.69254   1.71014   22.363
 3267.00    1.66151   1.71046   22.674
 3268.00    1.64363   1.71079   22.880
 3269.00    1.68382   1.71111   22.668
 3270.00    1.70075   1.71144   22.591
 3271.00    1.73081   1.71177   22.552
 3272.00    1.74845   1.71209   22.526
 3273.00    1.72829   1.71242   22.714
 3274.00    1.71819   1.71274   22.827
 3275.00    1.72078   1.71307   22.847
 3276.00    1.71145   1.71338   22.911
 3277.00    1.70877   1.71364   23.018
 3278.00    1.71340   1.71356   23.006
 3279.00    1.73084   1.71205   22.969
 3280.00    1.70198   1.70749   23.238
 3281.00    1.67729   1.69975   23.486
 3282.00    1.66517   1.69155   23.689
 3283.00    1.66392   1.68602   23.807
 3284.00    1.65472   1.68374   24.004
 3285.00    1.66454   1.68333   23.981
 3286.00    1.69568   1.68352   23.840
 3287.00    1.68316   1.68381   24.050
 3288.00    1.68341   1.68412   24.230
 3289.00    1.65849   1.68443   24.513
 3290.00    1.63515   1.68473   24.826
 3291.00    1.65015   1.68503   24.851
 3292.00    1.70113   1.68534   24.474
 3293.00    1.71882   1.68564   24.360
 3294.00    1.69886   1.68594   24.585
 3295.00    1.68476   1.68624   24.762
 3296.00    1.69245   1.68653   24.777
 3297.00    1.69888   1.68676   24.788
 3298.00    1.72452   1.68662   24.648
 3299.00    1.70281   1.68492   24.827
 3300.00    1.68962   1.67991   24.943
 3301.00    1.69705   1.67150   24.884
 3302.00    1.73160   1.66256   24.651
 3303.00    1.71752   1.65647   24.710
 3304.00    1.69648   1.65390   24.860
 3305.00    1.69098   1.65337   24.897
 3306.00    1.68205   1.65352   25.037
 3307.00    1.67396   1.65379   25.120
 3308.00    1.67260   1.65408   25.105
 3309.00    1.71602   1.65436   24.784
 3310.00    1.71822   1.65464   24.729
 3311.00    1.70924   1.65492   24.865
 3312.00    1.68812   1.65520   25.044
 3313.00    1.66336   1.65548   25.305
 3314.00    1.64869   1.65576   25.456
 3315.00    1.65855   1.65604   25.458
 3316.00    1.68951   1.65634   25.354
 3317.00    1.68938   1.65664   25.344
 3318.00    1.64692   1.65694   25.713
 3319.00    1.64602   1.65724   25.815
 3320.00    1.68396   1.65755   25.558
 3321.00    1.65922   1.65797   25.757
 3322.00    1.65594   1.65880   25.989
 3323.00    1.65139   1.65990   26.087
 3324.00    1.66742   1.66009   25.944
 3325.00    1.67341   1.65788   25.905
 3326.00    1.66289   1.65305   25.978
 3327.00    1.65672   1.64688   26.043
 3328.00    1.61536   1.64110   26.331
 3329.00    1.61119   1.63709   26.376
 3330.00    1.60214   1.63525   26.475
 3331.00    1.60703   1.63440   26.455
 3332.00    1.63282   1.63236   26.259
 3333.00    1.65503   1.62749   26.040
 3334.00    1.68123   1.61991   25.779
 3335.00    1.67934   1.61116   25.702
 3336.00    1.65911   1.60301   25.767
 3337.00    1.64217   1.59646   25.999
 3338.00    1.60931   1.59132   26.310
 3339.00    1.59848   1.58669   26.430
 3340.00    1.62020   1.58252   26.393
 3341.00    1.62840   1.58052   26.403
 3342.00    1.62577   1.58324   26.401
 3343.00    1.60114   1.59167   26.621
 3344.00    1.58727   1.60398   26.816
 3345.00    1.61495   1.61682   26.715
 3346.00    1.63348   1.62762   26.641
 3347.00    1.62977   1.63463   26.858
 3348.00    1.61509   1.63558   27.078
 3349.00    1.59834   1.62772   27.241
 3350.00    1.61017   1.61111   27.124
 3351.00    1.60291   1.59106   27.216
 3352.00    1.61330   1.57501   27.220
 3353.00    1.63343   1.56609   27.188
 3354.00    1.61406   1.56167   27.410
 3355.00    1.63261   1.55854   27.366
 3356.00    1.63167   1.55680   27.425
 3357.00    1.62133   1.55812   27.619
 3358.00    1.59645   1.56244   27.822
 3359.00    1.60380   1.56770   27.739
 3360.00    1.61416   1.57195   27.680
 3361.00    1.63448   1.57448   27.593
 3362.00    1.63653   1.57526   27.588
 3363.00    1.62181   1.57407   27.738
 3364.00    1.60601   1.57026   27.949
 3365.00    1.62094   1.56331   27.818
 3366.00    1.63773   1.55376   27.617
 3367.00    1.61676   1.54369   27.791
 3368.00    1.62597   1.53615   27.733
 3369.00    1.61558   1.53354   27.870
 3370.00    1.61887   1.53563   27.923
 3371.00    1.59521   1.53891   28.131
 3372.00    1.58680   1.53942   28.194
 3373.00    1.61087   1.53680   28.008
 3374.00    1.60787   1.53446   28.071
 3375.00    1.59319   1.53532   28.249
 3376.00    1.59342   1.53815   28.256
 3377.00    1.59964   1.53954   28.182
 3378.00    1.61343   1.53849   28.086
 3379.00    1.60360   1.53766   28.343
 3380.00    1.60901   1.54018   28.433
 3381.00    1.60871   1.54626   28.349
 3382.00    1.58947   1.55340   28.562
 3383.00    1.56168   1.55893   28.806
 3384.00    1.54584   1.56219   28.972
 3385.00    1.52943   1.56449   29.211
 3386.00    1.52672   1.56697   29.177
 3387.00    1.54888   1.56921   28.915
 3388.00    1.56236   1.56974   28.766
 3389.00    1.58872   1.56786   28.621
 3390.00    1.56643   1.56467   28.687
 3391.00    1.54288   1.56241   28.864
 3392.00    1.54773   1.56295   28.835
 3393.00    1.55771   1.56670   28.709
 3394.00    1.57233   1.57243   28.602
 3395.00    1.55798   1.57712   28.778
 3396.00    1.55107   1.57716   28.950
 3397.00    1.52210   1.57039   29.289
 3398.00    1.53873   1.55733   29.180
 3399.00    1.55025   1.54074   29.107
 3400.00    1.54729   1.52504   29.127
 3401.00    1.56866   1.51407   29.142
 3402.00    1.59268   1.50845   29.051
 3403.00    1.57137   1.50597   29.304
 3404.00    1.54742   1.50450   29.642
 3405.00    1.57044   1.50338   29.475
 3406.00    1.57038   1.50265   29.513
 3407.00    1.56499   1.50253   29.627
 3408.00    1.55839   1.50337   29.737
 3409.00    1.53963   1.50509   29.938
 3410.00    1.55807   1.50634   29.904
 3411.00    1.55430   1.50560   30.021
 3412.00    1.53170   1.50347   30.392
 3413.00    1.52681   1.50255   30.566
 3414.00    1.53137   1.50485   30.632
 3415.00    1.52553   1.50966   30.706
 3416.00    1.55553   1.51465   30.385
 3417.00    1.57308   1.51818   30.267
 3418.00    1.57350   1.52017   30.390
 3419.00    1.57033   1.52126   30.513
 3420.00    1.55531   1.52188   30.727
 3421.00    1.56124   1.52224   30.812
 3422.00    1.58537   1.52245   30.574
 3423.00    1.56532   1.52250   30.622
 3424.00    1.54224   1.52212   30.831
 3425.00    1.53546   1.52108   30.922
 3426.00    1.55083   1.51983   30.820
 3427.00    1.55227   1.51932   30.781
 3428.00    1.56278   1.51999   30.789
 3429.00    1.55335   1.52078   30.908
 3430.00    1.55076   1.52015   30.980
 3431.00    1.56198   1.51796   30.880
 3432.00    1.55546   1.51563   30.978
 3433.00    1.55001   1.51465   30.980
 3434.00    1.54170   1.51533   31.066
 3435.00    1.54876   1.51680   31.004
 3436.00    1.54473   1.51762   31.110
 3437.00    1.52708   1.51644   31.337
 3438.00    1.52019   1.51245   31.406
 3439.00    1.52603   1.50559   31.377
 3440.00    1.53947   1.49673   31.202
 3441.00    1.54151   1.48813   31.200
 3442.00    1.52503   1.48264   31.358
 3443.00    1.50990   1.48180   31.495
 3444.00    1.50351   1.48391   31.658
 3445.00    1.53015   1.48540   31.425
 3446.00    1.54189   1.48444   31.315
 3447.00    1.52500   1.48245   31.473
 3448.00    1.49808   1.48197   31.647
 3449.00    1.51410   1.48255   31.575
 3450.00    1.52205   1.48036   31.511
 3451.00    1.52315   1.47293   31.455
 3452.00    1.51888   1.46210   31.688
 3453.00    1.54002   1.45233   31.651
 3454.00    1.52887   1.44662   31.677
 3455.00    1.50832   1.44476   31.843
 3456.00    1.50819   1.44505   31.811
 3457.00    1.51151   1.44564   31.889
 3458.00    1.50933   1.44512   31.867
 3459.00    1.51931   1.44315   31.758
 3460.00    1.48586   1.44057   32.194
 3461.00    1.48525   1.43918   32.158
 3462.00    1.51383   1.44103   31.949
 3463.00    1.50512   1.44642   32.040
 3464.00    1.49757   1.45261   32.038
 3465.00    1.48627   1.45695   31.993
 3466.00    1.48694   1.45873   31.844
 3467.00    1.50102   1.45863   31.744
 3468.00    1.48162   1.45741   32.038
 3469.00    1.48689   1.45529   32.003
 3470.00    1.49063   1.45266   32.012
 3471.00    1.48205   1.44964   32.178
 3472.00    1.48741   1.44678   32.051
 3473.00    1.51036   1.44505   31.754
 3474.00    1.49914   1.44445   31.887
 3475.00    1.51034   1.44345   31.790
 3476.00    1.51344   1.43955   31.774
 3477.00    1.49811   1.43125   32.050
 3478.00    1.49200   1.41970   32.183
 3479.00    1.48192   1.40851   32.330
 3480.00    1.46926   1.40176   32.305
 3481.00    1.46886   1.40063   32.153
 3482.00    1.47154   1.40211   32.096
 3483.00    1.48328   1.40295   32.032
 3484.00    1.47903   1.40351   32.088
 3485.00    1.50809   1.40677   -1.000
 3486.00    1.49058   1.41414   -1.000
 3487.00    1.47976   1.42410   32.361
 3488.00    1.49574   1.43391   32.217
 3489.00    1.51539   1.44117   31.906
 3490.00    1.50282   1.44481   31.978
 3491.00    1.48703   1.44577   32.188
 3492.00    1.48961   1.44643   32.212
 3493.00    1.49738   1.44794   32.149
 3494.00    1.49256   1.44905   32.206
 3495.00    1.50104   1.44767   32.137
 3496.00    1.50236   1.44366   32.015
 3497.00    1.48871   1.43927   32.069
 3498.00    1.47334   1.43616   32.226
 3499.00    1.46174   1.43344   32.347
 3500.00    1.46322   1.42864    0.000
 3501.00    1.47840   1.42106    0.000
 3502.00    1.48499   1.41321    0.000
 3503.00    1.46655   1.40762    0.000
 3504.00    1.45406   1.40380    0.000
 3505.00    1.45628   1.39955    0.000
 3506.00    1.48103   1.39435    0.000
 3507.00    1.47805   1.39025    0.000
 3508.00    1.47768   1.38907    0.000
 3509.00    1.47890   1.39026    0.000
 3510.00    1.49013   1.39169    0.000
 3511.00    1.47777   1.39162    0.000
 3512.00    1.45630   1.38968    0.000
 3513.00    1.44248   1.38700    0.000
 3514.00    1.44706   1.38550    0.000
 3515.00    1.45301   1.38625    0.000
 3516.00    1.45515   1.38857    0.000
 3517.00    1.46908   1.39065    0.000
 3518.00    1.46157   1.39153    0.000
 3519.00    1.45206   1.39158    0.000
 3520.00    1.44640   1.39130    0.000
 3521.00    1.44217   1.39055    0.000
 3522.00    1.44488   1.38903    0.000
 3523.00    1.43018   1.38737    0.000
 3524.00    1.42973   1.38643    0.000
 3525.00    1.43159   1.38591    0.000
 3526.00    1.43331   1.38527    0.000
 3527.00    1.43798   1.38439    0.000
 3528.00    1.43219   1.38399    0.000
 3529.00    1.42833   1.38505    0.000
 3530.00    1.42570   1.38745    0.000
 3531.00    1.41887   1.39063    0.000
 3532.00    1.41879   1.39351    0.000
 3533.00    1.41314   1.39468    0.000
 3534.00    1.42036   1.39350    0.000
 3535.00    1.43678   1.39072    0.000
 3536.00    1.43669   1.38739    0.000
 3537.00    1.44414   1.38408    0.000
 3538.00    1.44820   1.38103    0.000
 3539.00    1.43779   1.37876    0.000
 3540.00    1.42796   1.37825    0.000
 3541.00    1.43055   1.37963    0.000
 3542.00    1.45117   1.38165    0.000
 3543.00    1.44174   1.38335    0.000
 3544.00    1.42749   1.38436    0.000
 3545.00    1.42924   1.38472    0.000
 3546.00    1.42300   1.38461    0.000
 3547.00    1.42912   1.38457    0.000
 3548.00    1.43048   1.38495    0.000
 3549.00    1.42329   1.38540    0.000
 3550.00    1.42027   1.38493    0.000
 3551.00    1.42788   1.38323    0.000
 3552.00    1.41523   1.38137    0.000
 3553.00    1.41460   1.38017    0.000
 3554.00    1.39660   1.37918    0.000
 3555.00    1.38969   1.37740    0.000
 3556.00    1.40421   1.37485    0.000
 3557.00    1.40882   1.37300    0.000
 3558.00    1.42718   1.37275    0.000
 3559.00    1.44182   1.37352    0.000
 3560.00    1.42838   1.37424    0.000
 3561.00    1.42441   1.37449    0.000
 3562.00    1.43119   1.37452    0.000
 3563.00    1.42554   1.37398    0.000
 3564.00    1.41427   1.37233    0.000
 3565.00    1.40189   1.36981    0.000
 3566.00    1.40513   1.36735    0.000
 3567.00    1.40820   1.36544    0.000
 3568.00    1.41493   1.36367    0.000
 3569.00    1.42126   1.36041    0.000
 3570.00    1.42729   1.35419    0.000
 3571.00    1.42061   1.34476    0.000
 3572.00    1.42082   1.33400    0.000
 3573.00    1.42215   1.32482    0.000
 3574.00    1.41526   1.31891    0.000
 3575.00    1.41104   1.31643    0.000
 3576.00    1.42157   1.31594    0.000
 3577.00    1.40051   1.31592    0.000
 3578.00    1.39130   1.31505    0.000
 3579.00    1.37191   1.31283    0.000
 3580.00    1.38288   1.31028    0.000
 3581.00    1.38713   1.30876    0.000
 3582.00    1.41301   1.30829    0.000
 3583.00    1.42353   1.30787    0.000
 3584.00    1.40190   1.30677    0.000
 3585.00    1.40401   1.30516    0.000
 3586.00    1.39636   1.30357    0.000
 3587.00    1.36545   1.30202    0.000
 3588.00    1.35750   1.30060    0.000
 3589.00    1.35191   1.30013    0.000
 3590.00    1.37037   1.30129    0.000
 3591.00    1.38414   1.30347    0.000
 3592.00    1.37320   1.30511    0.000
 3593.00    1.37544   1.30535    0.000
 3594.00    1.37627   1.30462    0.000
 3595.00    1.39230   1.30396    0.000
 3596.00    1.40009   1.30380    0.000
 3597.00    1.39223   1.30416    0.000
 3598.00    1.37513   1.30532    0.000
 3599.00    1.36877   1.30760    0.000
 3600.00    1.38072   1.31066    0.000
 3601.00    1.35055   1.31321    0.000
 3602.00    1.34048   1.31426    0.000
 3603.00    1.34302   1.31321    0.000
 3604.00    1.36937   1.31068    0.000
 3605.00    1.38106   1.30791    0.000
 3606.00    1.39035   1.30571    0.000
 3607.00    1.39870   1.30452    0.000
 3608.00    1.40534   1.30419    0.000
 3609.00    1.39509   1.30449    0.000
 3610.00    1.37605   1.30488    0.000
 3611.00    1.37051   1.30462    0.000
 3612.00    1.38053   1.30357    0.000
 3613.00    1.39424   1.30173    0.000
 3614.00    1.38723   1.29953    0.000
 3615.00    1.37340   1.29753    0.000
 3616.00    1.37427   1.29625    0.000
 3617.00    1.36093   1.29633    0.000
 3618.00    1.37100   1.29783    0.000
 3619.00    1.37202   1.30007    0.000
 3620.00    1.37901   1.30216    0.000
 3621.00    1.37663   1.30423    0.000
 3622.00    1.38119   1.30663    0.000
 3623.00    1.37474   1.30913    0.000
 3624.00    1.36235   1.31122    0.000
 3625.00    1.37527   1.31246    0.000
 3626.00    1.38647   1.31342    0.000
 3627.00    1.36509   1.31442    0.000
 3628.00    1.37977   1.31462    0.000
 3629.00    1.37222   1.31312    0.000
 3630.00    1.34604   1.31042    0.000
 3631.00    1.34939   1.30775    0.000
 3632.00    1.36185   1.30577    0.000
 3633.00    1.36697   1.30418    0.000
 3634.00    1.34131   1.30257    0.000
 3635.00    1.30438   1.29985    0.000
 3636.00    1.32685   1.29512    0.000
 3637.00    1.35897   1.28896    0.000
 3638.00    1.33747   1.28330    0.000
 3639.00    1.35461   1.28046    0.000
 3640.00    1.34642   1.28077    0.000
 3641.00    1.35646   1.28263    0.000
 3642.00    1.34963   1.28427    0.000
 3643.00    1.36512   1.28414    0.000
 3644.00    1.35349   1.28144    0.000
 3645.00    1.34620   1.27685    0.000
 3646.00    1.33807   1.27212    0.000
 3647.00    1.33298   1.26895    0.000
 3648.00    1.32884   1.26788    0.000
 3649.00    1.30298   1.26840    0.000
 3650.00    1.29888   1.26960    0.000
 3651.00    1.29678   1.27046    0.000
 3652.00    1.28023   1.27042    0.000
 3653.00    1.25314   1.26947    0.000
 3654.00    1.23259   1.26821    0.000
 3655.00    1.23811   1.26741    0.000
 3656.00    1.23930   1.26735    0.000
 3657.00    1.24826   1.26768    0.000
 3658.00    1.25478   1.26770    0.000
 3659.00    1.24550   1.26685    0.000
 3660.00    1.24253   1.26515    0.000
 3661.00    1.24714   1.26303    0.000
 3662.00    1.25453   1.26096    0.000
 3663.00    1.25386   1.25952    0.000
 3664.00    1.26382   1.25864    0.000
 3665.00    1.26971   1.25788    0.000
 3666.00    1.26138   1.25662    0.000
 3667.00    1.26644   1.25448    0.000
 3668.00    1.27493   1.25205    0.000
 3669.00    1.26427   1.25028    0.000
 3670.00    1.25888   1.24983    0.000
 3671.00    1.24868   1.25033    0.000
 3672.00    1.26145   1.25036    0.000
 3673.00    1.26076   1.24881    0.000
 3674.00    1.25910   1.24585    0.000
 3675.00    1.27153   1.24256    0.000
 3676.00    1.24824   1.23997    0.000
 3677.00    1.22735   1.23782    0.000
 3678.00    1.24360   1.23578    0.000
 3679.00    1.24026   1.23346    0.000
 3680.00    1.24015   1.23143    0.000
 3681.00    1.24551   1.23039    0.000
 3682.00    1.24105   1.23028    0.000
 3683.00    1.24394   1.23047    0.000
 3684.00    1.24444   1.23004    0.000
 3685.00    1.25829   1.22856    0.000
 3686.00    1.27084   1.22627    0.000
 3687.00    1.25144   1.22411    0.000
 3688.00    1.24428   1.22307    0.000
 3689.00    1.24022   1.22350    0.000
 3690.00    1.25776   1.22456    0.000
 3691.00    1.25723   1.22490    0.000
 3692.00    1.24067   1.22381    0.000
 3693.00    1.23901   1.22154    0.000
 3694.00    1.22996   1.21848    0.000
 3695.00    1.24628   1.21480    0.000
 3696.00    1.28367   1.21097    0.000
 3697.00    1.26285   1.20802    0.000
 3698.00    1.23264   1.20701    0.000
 3699.00    1.23498   1.20813    0.000
 3700.00    1.23736   1.21029    0.000
 3701.00    1.24950   1.21061    0.000
 3702.00    1.24801   1.20603    0.000
 3703.00    1.26794   1.19526    0.000
 3704.00    1.25068   1.18107    0.000
 3705.00    1.21312   1.16852    0.000
 3706.00    1.20801   1.16205    0.000
 3707.00    1.20441   1.16260    0.000
 3708.00    1.22853   1.16718    0.000
 3709.00    1.22931   1.17118    0.000
 3710.00    1.25356   1.17106    0.000
 3711.00    1.28805   1.16656    0.000
 3712.00    1.27352   1.16042    0.000
 3713.00    1.24334   1.15681    0.000
 3714.00    1.26268   1.15885    0.000
 3715.00    1.25553   1.16666    0.000
 3716.00    1.24386   1.17681    0.000
 3717.00    1.25114   1.18457    0.000
 3718.00    1.26488   1.18612    0.000
 3719.00    1.27650   1.17953    0.000
 3720.00    1.34421   1.16611    0.000
 3721.00    1.43389   1.14970    0.000
 3722.00    1.45746   1.13613    0.000
 3723.00    1.84303   1.13057    0.000
 3724.00    4.28604   1.13378    0.000
 3725.00    7.52245   1.14276    0.000
 3726.00    9.49618   1.15350    0.000
 3727.00   13.71024   1.16349    0.000
 3728.00   15.25416   1.17170    0.000
 3729.00   12.60589   1.17742    0.000
 3730.00   10.87008   1.17871    0.000
 3731.00    6.72242   1.17337    0.000
 3732.00    2.39061   1.16062    0.000
 3733.00    1.50165   1.14187    0.000
 3734.00    1.39240   1.12162    0.000
 3735.00    1.34062   1.10622    0.000
 3736.00    1.30676   1.10099    0.000
 3737.00    1.23652   1.10812    0.000
 3738.00    1.22699   1.12508    0.000
 3739.00    1.23578   1.14673    0.000
 3740.00    1.22617   1.16742   -1.000
 3741.00    1.22603   1.18318   44.031
 3742.00    1.23724   1.19190   43.732
 3743.00    1.22211   1.19362   43.836
 3744.00    1.22618   1.18979   43.746
 3745.00    1.21757   1.18189    0.000
 3746.00    1.20652   1.17043    0.000
 3747.00    1.20571   1.15423    0.000
 3748.00    1.23961   1.13284    0.000
 3749.00    1.31096   1.10850    0.000
 3750.00    1.28606   1.08726    0.000
 3751.00    1.25739   1.07555    0.000
 3752.00    1.23769   1.07675    0.000
 3753.00    1.19534   1.08885    0.000
 3754.00    1.18620   1.10636    0.000
 3755.00    1.15922   1.12380   45.649
 3756.00    1.15700   1.13752   45.749
 3757.00    1.17387   1.14572   45.498
 3758.00    1.18447   1.14840   45.117
 3759.00    1.17458   1.14712   45.261
 3760.00    1.16856   1.14447   45.429
 3761.00    1.18013   1.14325   45.266
 3762.00    1.19350   1.14539   45.101
 3763.00    1.19278   1.14987   45.193
 3764.00    1.18578   1.15366   45.308
 3765.00    1.18603   1.15219    0.000
 3766.00    1.16121   1.14342    0.000
 3767.00    1.14939   1.12790    0.000
 3768.00    1.18063   1.10708    0.000
 3769.00    1.28788   1.08311    0.000
 3770.00    1.32811   1.05953    0.000
 3771.00    1.29548   1.04201    0.000
 3772.00    1.27411   1.03633    0.000
 3773.00    1.18481   1.04483    0.000
 3774.00    1.13361   1.06427    0.000
 3775.00    1.14301   1.08797    0.000
 3776.00    1.13872   1.11000   46.845
 3777.00    1.13532   1.12729   47.031
 3778.00    1.15622   1.13941   46.634
 3779.00    1.16808   1.14750   46.385
 3780.00    1.16390   1.15290   46.465
 3781.00    1.17698   1.15691   46.273
 3782.00    1.17349   1.16013   46.444
 3783.00    1.17544   1.16223   46.313
 3784.00    1.16537   1.16310   46.604
 3785.00    1.14969   1.16285   46.926
 3786.00    1.16606   1.16174   46.591
 3787.00    1.16262   1.15985   46.784
 3788.00    1.16134   1.15636   46.968
 3789.00    1.16889   1.15080   46.949
 3790.00    1.15586   1.14339   47.256
 3791.00    1.14331   1.13457   47.605
 3792.00    1.13244   1.12495   47.901
 3793.00    1.13280   1.11433    0.000
 3794.00    1.13323   1.10115    0.000
 3795.00    1.14799   1.08312    0.000
 3796.00    1.28706   1.05905    0.000
 3797.00    1.37957   1.03170    0.000
 3798.00    1.37298   1.00787    0.000
 3799.00    1.35281   0.99605    0.000
 3800.00    1.25916   1.00132    0.000
 3801.00    1.15293   1.02163    0.000
 3802.00    1.12376   1.04934    0.000
 3803.00    1.12629   1.07616   -1.000
 3804.00    1.13541   1.09718   48.901
 3805.00    1.14989   1.11189   48.745
 3806.00    1.14932   1.12111   48.827
 3807.00    1.15834   1.12677   48.722
 3808.00    1.16097   1.13046   48.677
 3809.00    1.15896   1.13382   48.722
 3810.00    1.16144   1.13739   48.786
 3811.00    1.15718   1.14040   49.030
 3812.00    1.16826   1.14204   48.808
 3813.00    1.17748   1.14177   48.615
 3814.00    1.17012   1.13974   48.822
 3815.00    1.17804   1.13658    0.000
 3816.00    1.17143   1.13253    0.000
 3817.00    1.16971   1.12711    0.000
 3818.00    1.18356   1.11992    0.000
 3819.00    1.18222   1.11136    0.000
 3820.00    1.15600   1.10336    0.000
 3821.00    1.14204   1.09852    0.000
 3822.00    1.13977   1.09871    0.000
 3823.00    1.16060   1.10276    0.000
 3824.00    1.17170   1.10796   -1.000
 3825.00    1.17393   1.11118   -1.000
 3826.00    1.16146   1.11138   49.016
 3827.00    1.16264   1.10926   48.995
 3828.00    1.15820   1.10488   49.076
 3829.00    1.14365   1.09808   49.432
 3830.00    1.13518   1.08744    0.000
 3831.00    1.12581   1.07221    0.000
 3832.00    1.12051   1.05188    0.000
 3833.00    1.20981   1.02650    0.000
 3834.00    1.42621   0.99726    0.000
 3835.00    1.50415   0.96916    0.000
 3836.00    1.47571   0.94973    0.000
 3837.00    1.39317   0.94580    0.000
 3838.00    1.18449   0.95868    0.000
 3839.00    1.07782   0.98331    0.000
 3840.00    1.08870   1.01197    0.000
 3841.00    1.09683   1.03880   -1.000
 3842.00    1.11247   1.06129   -1.000
 3843.00    1.13162   1.07939   -1.000
 3844.00    1.13084   1.09400   50.010
 3845.00    1.14007   1.10528   49.916
 3846.00    1.14666   1.11268   49.879
 3847.00    1.14512   1.11655   49.924
 3848.00    1.14300   1.11753   49.965
 3849.00    1.13002   1.11796   50.256
 3850.00    1.14149   1.11860   50.088
 3851.00    1.14504   1.12026   49.995
 3852.00    1.12320   1.12193   50.515
 3853.00    1.11210   1.12269   50.854
 3854.00    1.12823   1.12156   50.545
 3855.00    1.13964   1.11818   50.361
 3856.00    1.13764   1.11362   50.456
 3857.00    1.11769   1.10907   50.909
 3858.00    1.12444   1.10597   50.710
 3859.00    1.12579   1.10530    0.000
 3860.00    1.11895   1.10694    0.000
 3861.00    1.11042   1.10971    0.000
 3862.00    1.12143   1.11074    0.000
 3863.00    1.12861   1.10868    0.000
 3864.00    1.13648   1.10352    0.000
 3865.00    1.13842   1.09736    0.000
 3866.00    1.22144   1.09260    0.000
 3867.00    1.51693   1.09018    0.000
 3868.00    1.74864   1.08954    0.000
 3869.00    1.79316   1.08940    0.000
 3870.00    1.71349   1.08861    0.000
 3871.00    1.43487   1.08696    0.000
 3872.00    1.18655   1.08525    0.000
 3873.00    1.11331   1.08468    0.000
 3874.00    1.12093   1.08549    0.000
 3875.00    1.13118   1.08707    0.000
 3876.00    1.12799   1.08782    0.000
 3877.00    1.12474   1.08693   51.411
 3878.00    1.12066   1.08478   51.574
 3879.00    1.11512   1.08229   51.739
 3880.00    1.13184   1.07996   51.384
 3881.00    1.13569   1.07653   51.359
 3882.00    1.11329   1.07108    0.000
 3883.00    1.09592   1.06274    0.000
 3884.00    1.08865   1.05128    0.000
 3885.00    1.09866   1.03533    0.000
 3886.00    1.22967   1.01293    0.000
 3887.00    1.77792   0.98334    0.000
 3888.00    2.28403   0.95027    0.000
 3889.00    2.38006   0.92220    0.000
 3890.00    2.25522   0.90886    0.000
 3891.00    1.74674   0.91602    0.000
 3892.00    1.22332   0.94112    0.000
 3893.00    1.07269   0.97535    0.000
 3894.00    1.06983   1.00843    0.000
 3895.00    1.07997   1.03525    0.000
 3896.00    1.09412   1.05415   51.650
 3897.00    1.10059   1.06725   51.445
 3898.00    1.09448   1.07622   51.514
 3899.00    1.09874   1.08249   51.328
 3900.00    1.09985   1.08719   51.208
 3901.00    1.10824   1.09086   50.892
 3902.00    1.11557   1.09391   50.652
 3903.00    1.11177   1.09640   50.749
 3904.00    1.10758   1.09807   50.780
 3905.00    1.10864   1.09894   50.604
 3906.00    1.09730   1.09898   50.792
 3907.00    1.08796   1.09921   50.939
 3908.00    1.09989   1.10010   50.591
 3909.00    1.10187   1.10176   50.419
 3910.00    1.10053   1.10324   50.331
 3911.00    1.09648   1.10389   50.356
 3912.00    1.08279   1.10399   50.551
 3913.00    1.08496   1.10414   50.460
 3914.00    1.09713   1.10426   50.059
 3915.00    1.08028   1.10397   50.329
 3916.00    1.07819   1.10325   50.318
 3917.00    1.06663   1.10179   50.504
 3918.00    1.07407   1.09899   50.294
 3919.00    1.08298   1.09473   50.032
 3920.00    1.07190   1.08936   50.285
 3921.00    1.05522   1.08353   50.616
 3922.00    1.06306   1.07786   50.407
 3923.00    1.06088   1.07232   50.461
 3924.00    1.05626   1.06751   50.505
 3925.00    1.05663   1.06434   50.532
 3926.00    1.04295   1.06352   50.890
 3927.00    1.04137   1.06479   50.952
 3928.00    1.05086   1.06665   50.719
 3929.00    1.05538   1.06814   50.633
 3930.00    1.05635   1.06681   50.618
 3931.00    1.05518   1.05916   50.654
 3932.00    1.04112   1.04220   51.013
 3933.00    1.01162   1.01759   -1.000
 3934.00    0.97599   0.99581   -1.000
 3935.00    0.95760   0.98838   53.341
 3936.00    0.97126   1.00093   53.045
 3937.00    0.98852   1.02571   52.615
 3938.00    1.02368   1.04963   51.788
 3939.00    1.06278   1.06653   50.867
 3940.00    1.07357   1.07571   50.642
 3941.00    1.07272   1.07998   50.747
 3942.00    1.07744   1.08146   50.733
 3943.00    1.06356   1.08056   51.170
 3944.00    1.05209   1.07740   51.505
 3945.00    1.05720   1.07244   51.463
 3946.00    1.06295   1.06725   51.422
 3947.00    1.06251   1.06323   51.415
 3948.00    1.07440   1.06138   51.180
 3949.00    1.06934   1.06143   51.407
 3950.00    1.05351   1.06223   51.895
 3951.00    1.05812   1.06247   51.864
 3952.00    1.05569   1.06146   52.074
 3953.00    1.05855   1.05919   52.151
 3954.00    1.04987   1.05627   52.475
 3955.00    1.03444   1.05308   52.940
 3956.00    1.03370   1.04979   53.114
 3957.00    1.03761   1.04659    0.000
 3958.00    1.06043   1.04363    0.000
 3959.00    1.06030   1.04096    0.000
 3960.00    1.05328   1.03774    0.000
 3961.00    1.04819   1.03317    0.000
 3962.00    1.04927   1.02634    0.000
 3963.00    1.07173   1.01680    0.000
 3964.00    1.08533   1.00402    0.000
 3965.00    1.10737   0.98655    0.000
 3966.00    1.19277   0.96194    0.000
 3967.00    1.28056   0.92770    0.000
 3968.00    1.66980   0.88534    0.000
 3969.00    2.11724   0.84329    0.000
 3970.00    2.09149   0.81421    0.000
 3971.00    1.99457   0.80809    0.000
 3972.00    1.63551   0.82509    0.000
 3973.00    1.13168   0.85805    0.000
 3974.00    0.98881   0.89662    0.000
 3975.00    0.99455   0.93259    0.000
 3976.00    1.01625   0.96120    0.000
 3977.00    1.03519   0.98214   -1.000
 3978.00    1.03421   0.99657   56.329
 3979.00    1.03174   1.00687   56.446
 3980.00    1.04077   1.01461   56.298
 3981.00    1.04789   1.02089   56.201
 3982.00    1.04428   1.02543   56.413
 3983.00    1.03995   1.02818   56.596
 3984.00    1.04296   1.02895   56.590
 3985.00    1.03979   1.02812   56.789
 3986.00    1.03117   1.02621   57.093
 3987.00    1.03796   1.02430   56.950
 3988.00    1.04405   1.02449   56.821
 3989.00    1.04562   1.02705   56.798
 3990.00    1.03963   1.03233   56.947
 3991.00    1.02265   1.03658   57.413
 3992.00    1.02894   1.03942   57.293
 3993.00    1.02864   1.04007   57.311
 3994.00    1.02039   1.03935   57.572
 3995.00    1.00768   1.03813   57.956
 3996.00    0.98838   1.03689   58.545
 3997.00    1.00724   1.03629   57.960
 3998.00    1.02228   1.03609   57.500
 3999.00    1.03266   1.03612   57.229
 4000.00    1.04525   1.03556   56.882
 4001.00    1.03695   1.03430   57.094
 4002.00    1.02877   1.03238   57.313
 4003.00    1.02779   1.03059    0.000
 4004.00    1.03181   1.02906    0.000
 4005.00    1.03129   1.02789    0.000
 4006.00    1.02515   1.02690    0.000
 4007.00    1.01557   1.02614    0.000
 4008.00    1.01240   1.02540    0.000
 4009.00    1.00860   1.02470    0.000
 4010.00    1.00000   1.02428    0.000
 4011.00    0.99908   1.02485    0.000
 4012.00    1.01916   1.02668    0.000
 4013.00    1.02900   1.02944    0.000
 4014.00    1.03163   1.03212    0.000
 4015.00    1.02890   1.03397   56.787
 4016.00    1.03144   1.03511   56.672
 4017.00    1.03234   1.03592   56.581
 4018.00    1.02591   1.03677   56.699
 4019.00    1.02620   1.03751   56.639
 4020.00    1.01565   1.03748    0.000
 4021.00    1.00857   1.03609    0.000
 4022.00    1.00913   1.03256    0.000
 4023.00    1.01377   1.02589    0.000
 4024.00    1.03575   1.01558    0.000
 4025.00    1.07021   1.00254    0.000
 4026.00    1.05219   0.99050    0.000
 4027.00    1.03552   0.98413    0.000
 4028.00    1.02821   0.98622    0.000
 4029.00    1.00677   0.99532    0.000
 4030.00    1.01156   1.00709    0.000
 4031.00    1.01232   1.01692    0.000
 4032.00    1.00547   1.02294   56.674
 4033.00    1.01166   1.02551   56.487
 4034.00    1.00800   1.02647   56.586
 4035.00    0.99820   1.02744   56.894
 4036.00    0.98977   1.02906   57.120
 4037.00    0.99539   1.03106   56.953
 4038.00    1.01437   1.03254   56.439
 4039.00    0.99995   1.03306   56.842
 4040.00    0.98607   1.03283   57.287
 4041.00    0.98275   1.03225   57.396
 4042.00    0.98124   1.03133   57.436
 4043.00    0.97727   1.02964   -1.000
 4044.00    0.99171   1.02680   57.168
 4045.00    1.00134   1.02344   56.929
 4046.00    0.99069   1.02086   57.234
 4047.00    0.99628   1.02027   57.101
 4048.00    0.98312   1.02196   57.528
 4049.00    0.98006   1.02516   57.650
 4050.00    0.98576   1.02849   57.510
 4051.00    0.99444   1.03105   57.319
 4052.00    0.99827   1.03247   57.296
 4053.00    0.99886   1.03288   57.335
 4054.00    0.98784   1.03258   57.697
 4055.00    0.98938   1.03165   57.731
 4056.00    0.99319   1.03039   57.676
 4057.00    0.99951   1.02894   57.598
 4058.00    0.99858   1.02763   57.739
 4059.00    0.99747   1.02664   57.846
 4060.00    0.99879   1.02579   57.895
 4061.00    1.00231   1.02425    0.000
 4062.00    0.99659   1.02120    0.000
 4063.00    0.98605   1.01587    0.000
 4064.00    0.98450   1.00799    0.000
 4065.00    0.99131   0.99794    0.000
 4066.00    1.00793   0.98881    0.000
 4067.00    1.03768   0.98264    0.000
 4068.00    1.04345   0.98111    0.000
 4069.00    1.04744   0.98140    0.000
 4070.00    1.02769   0.98128    0.000
 4071.00    0.98873   0.98015    0.000
 4072.00    0.95832   0.97894    0.000
 4073.00    0.95185   0.97835    0.000
 4074.00    0.96288   0.97830    0.000
 4075.00    0.98302   0.97801    0.000
 4076.00    0.98789   0.97725    0.000
 4077.00    0.98783   0.97642    0.000
 4078.00    0.98990   0.97642    0.000
 4079.00    0.99232   0.97802    0.000
 4080.00    0.99401   0.98098    0.000
 4081.00    0.99022   0.98430    0.000
 4082.00    0.98353   0.98659    0.000
 4083.00    0.98929   0.98714   60.050
 4084.00    0.98778   0.98583   60.150
 4085.00    0.97896   0.98361   60.463
 4086.00    0.98434   0.98115   60.396
 4087.00    0.99334   0.97921   60.157
 4088.00    0.99065   0.97741   60.305
 4089.00    0.98660   0.97550   60.526
 4090.00    0.98289   0.97311   60.705
 4091.00    0.97941   0.97070   60.907
 4092.00    0.98192   0.96830   60.914
 4093.00    0.98040   0.96523   61.031
 4094.00    0.97467   0.95982   61.286
 4095.00    0.96919   0.95040   61.544
 4096.00    0.96948   0.93649   61.634
 4097.00    0.95222   0.91841   62.265
 4098.00    0.94867   0.89660   62.484
 4099.00    1.21702   0.87112    0.000
 4100.00    2.14815   0.84275    0.000
 4101.00    2.82799   0.81460    0.000
 4102.00    2.89767   0.79301    0.000
 4103.00    2.65741   0.78515    0.000
 4104.00    1.78619   0.79496    0.000
 4105.00    1.09110   0.81986    0.000
 4106.00    0.94700   0.85220    0.000
 4107.00    0.94087   0.88329   -1.000
 4108.00    0.95231   0.90814   -1.000
 4109.00    0.94949   0.92562   63.255
 4110.00    0.95691   0.93732   63.039
 4111.00    0.95992   0.94522   62.978
 4112.00    0.95589   0.95092   63.139
 4113.00    0.95724   0.95528   63.138
 4114.00    0.96158   0.95880   63.037
 4115.00    0.95809   0.96149   63.174
 4116.00    0.95742   0.96322    0.000
 4117.00    0.94985   0.96351    0.000
 4118.00    0.95501   0.96215    0.000
 4119.00    0.96353   0.95973    0.000
 4120.00    0.94982   0.95732    0.000
 4121.00    0.93852   0.95611    0.000
 4122.00    0.93755   0.95667    0.000
 4123.00    0.94608   0.95885    0.000
 4124.00    0.95909   0.96187    0.000
 4125.00    0.96458   0.96469    0.000
 4126.00    0.96100   0.96635   63.227
 4127.00    0.95364   0.96652   63.522
 4128.00    0.95639   0.96540   63.434
 4129.00    0.95786   0.96381   63.380
 4130.00    0.96074   0.96234   63.281
 4131.00    0.95297   0.96129   63.540
 4132.00    0.94974   0.96041   63.710
 4133.00    0.95145   0.95965   63.672
 4134.00    0.94581   0.95940   63.881
 4135.00    0.94312   0.96017   63.996
 4136.00    0.93973   0.96198   64.119
 4137.00    0.94645   0.96422   63.924
 4138.00    0.94739   0.96604   63.914
 4139.00    0.94741   0.96680    0.000
 4140.00    0.94365   0.96616    0.000
 4141.00    0.94921   0.96399    0.000
 4142.00    0.93613   0.96022    0.000
 4143.00    0.92309   0.95554    0.000
 4144.00    0.91208   0.95109    0.000
 4145.00    0.91768   0.94853    0.000
 4146.00    0.92505   0.94872    0.000
 4147.00    0.93579   0.95111    0.000
 4148.00    0.94049   0.95432   64.465
 4149.00    0.94211   0.95703   64.424
 4150.00    0.94884   0.95880   64.218
 4151.00    0.95827   0.95981   63.911
 4152.00    0.95859   0.96016   63.871
 4153.00    0.94503   0.95998   64.370
 4154.00    0.94040   0.95938   64.544
 4155.00    0.94158   0.95862   64.502
 4156.00    0.94079   0.95799   64.519
 4157.00    0.94050   0.95773   64.555
 4158.00    0.94960   0.95798   64.282
 4159.00    0.94019   0.95871   64.584
 4160.00    0.93793   0.95956   64.667
 4161.00    0.93480   0.96013   64.779
 4162.00    0.93299   0.96030   64.838
 4163.00    0.93662   0.96014   64.720
 4164.00    0.93548   0.95972   64.770
 4165.00    0.93166   0.95884   64.908
 4166.00    0.93054   0.95718   64.948
 4167.00    0.92789   0.95456   65.043
 4168.00    0.92236   0.95134   65.239
 4169.00    0.91235   0.94822   65.604
 4170.00    0.91633   0.94587   65.446
 4171.00    0.92701   0.94425   65.045
 4172.00    0.92830   0.94301   64.985
 4173.00    0.92447   0.94185   65.149
 4174.00    0.91229   0.94082   65.575
 4175.00    0.91878   0.93986   65.299
 4176.00    0.91862   0.93890   65.317
 4177.00    0.91118   0.93806   65.573
 4178.00    0.91700   0.93754   65.352
 4179.00    0.90961   0.93732   65.572
 4180.00    0.91439   0.93699   65.383
 4181.00    0.92284   0.93634   65.066
 4182.00    0.92074   0.93556   65.124
 4183.00    0.91748   0.93505   65.257
 4184.00    0.91420   0.93501   65.382
 4185.00    0.90912   0.93507   65.538
 4186.00    0.90520   0.93482   65.642
 4187.00    0.90714   0.93400   65.551
 4188.00    0.90457   0.93264   65.622
 4189.00    0.90536   0.93078   65.587
 4190.00    0.90889   0.92847   65.474
 4191.00    0.91239   0.92565   65.314
 4192.00    0.90419   0.92257   65.588
 4193.00    0.90055   0.91955   65.693
 4194.00    0.90715   0.91656   65.446
 4195.00    0.91064   0.91303   65.267
 4196.00    0.90322   0.90808   65.493
 4197.00    0.90444   0.90111   65.445
 4198.00    0.89734   0.89226   65.714
 4199.00    0.88843   0.88269   66.001
 4200.00    0.88856   0.87455   65.964
 4201.00    0.88492   0.87028   66.081
 4202.00    0.89399   0.87153   65.719
 4203.00    0.89792   0.87798   65.567
 4204.00    0.90820   0.88732   65.137
 4205.00    0.91057   0.89671   65.026
 4206.00    0.90462   0.90398   65.263
 4207.00    0.90371   0.90844   65.256
 4208.00    0.90071   0.91051   65.356
 4209.00    0.90350   0.91095   65.253
 4210.00    0.90806   0.91035   65.037
 4211.00    0.89820   0.90911   65.353
 4212.00    0.89729   0.90738   65.356
 4213.00    0.89939   0.90540   65.294
 4214.00    0.90239   0.90341   65.156
 4215.00    0.90388   0.90171   65.060
 4216.00    0.90665   0.90066   64.968
 4217.00    0.89442   0.90072   65.423
 4218.00    0.89156   0.90203   65.513
 4219.00    0.88948   0.90419   65.532
 4220.00    0.88971   0.90631   65.526
 4221.00    0.89271   0.90734   65.405
 4222.00    0.89243   0.90674   65.365
 4223.00    0.89661   0.90442   65.214
 4224.00    0.89175   0.90054   65.374
 4225.00    0.89221   0.89592   65.330
 4226.00    0.88994   0.89134   65.376
 4227.00    0.89279   0.88810   65.258
 4228.00    0.89027   0.88710   65.332
 4229.00    0.88819   0.88850   65.400
 4230.00    0.88747   0.89159   65.393
 4231.00    0.90271   0.89482   64.828
 4232.00    0.89109   0.89684   65.231
 4233.00    0.88162   0.89706   65.614
 4234.00    0.88860   0.89594   65.366
 4235.00    0.89719   0.89443   65.033
 4236.00    0.89174   0.89343   65.227
 4237.00    0.89533   0.89338   65.101
 4238.00    0.89629   0.89408   65.103
 4239.00    0.88975   0.89507   65.376
 4240.00    0.89058   0.89595   65.352
 4241.00    0.88584   0.89671   65.545
 4242.00    0.87476   0.89770   65.996
 4243.00    0.87666   0.89921   65.925
 4244.00    0.87730   0.90109   65.950
 4245.00    0.87677   0.90281   65.984
 4246.00    0.88461   0.90367   65.702
 4247.00    0.87998   0.90326   65.955
 4248.00    0.88632   0.90150   65.782
 4249.00    0.87989   0.89884   66.048
 4250.00    0.87209   0.89600   66.405
 4251.00    0.87787   0.89365   66.232
 4252.00    0.87392   0.89211   66.428
 4253.00    0.86956   0.89117   66.649
 4254.00    0.85971   0.89026   67.056
 4255.00    0.86386   0.88923   66.935
 4256.00    0.86630   0.88817   66.925
 4257.00    0.86605   0.88731   66.978
 4258.00    0.88159   0.88662   66.465
 4259.00    0.87909   0.88589   66.623
 4260.00    0.87746   0.88518   66.724
 4261.00    0.87379   0.88492   66.909
 4262.00    0.86685   0.88559   67.222
 4263.00    0.87444   0.88710   67.000
 4264.00    0.87569   0.88887   67.010
 4265.00    0.87089   0.89001   67.254
 4266.00    0.87013   0.88995   67.313
 4267.00    0.86405   0.88865   67.606
 4268.00    0.85949   0.88647   67.812
 4269.00    0.87391   0.88385   67.274
 4270.00    0.87619   0.88110   67.247
 4271.00    0.86785   0.87844   67.602
 4272.00    0.86646   0.87612   67.690
 4273.00    0.85723   0.87439   68.117
 4274.00    0.84919   0.87350   68.480
 4275.00    0.85554   0.87371   68.266
 4276.00    0.86862   0.87500   67.805
 4277.00    0.86635   0.87723   67.912
 4278.00    0.86852   0.87966   67.878
 4279.00    0.86551   0.88153   68.055
 4280.00    0.86376   0.88249   68.138
 4281.00    0.87085   0.88261   67.909
 4282.00    0.87204   0.88240   67.903
 4283.00    0.85946   0.88209   68.418
 4284.00    0.85238   0.88167   68.731
 4285.00    0.84991   0.88098   68.853
 4286.00    0.85531   0.87994   68.671
 4287.00    0.86008   0.87868   68.521
 4288.00    0.86732   0.87709   68.281
 4289.00    0.87143   0.87507   68.135
 4290.00    0.85668   0.87237   68.763
 4291.00    0.85178   0.86931   68.980
 4292.00    0.85209   0.86665   68.960
 4293.00    0.85448   0.86482   68.867
 4294.00    0.84853   0.86393   69.107
 4295.00    0.85119   0.86323   69.012
 4296.00    0.85689   0.86216   68.805
 4297.00    0.85865   0.86046   68.715
 4298.00    0.85038   0.85823   69.034
 4299.00    0.85655   0.85583   68.803
 4300.00    0.85648   0.85354   68.791
 4301.00    0.85553   0.85174   68.808
 4302.00    0.85658   0.85053   68.756
 4303.00    0.84682   0.84989   69.149
 4304.00    0.84909   0.84973   69.056
 4305.00    0.85628   0.84978   68.731
 4306.00    0.85337   0.84971   68.823
 4307.00    0.85901   0.84926   68.586
 4308.00    0.86203   0.84834   68.459
 4309.00    0.85656   0.84736   68.651
 4310.00    0.85490   0.84681   68.729
 4311.00    0.84800   0.84708   69.014
 4312.00    0.84067   0.84829   69.282
 4313.00    0.85230   0.85015   68.826
 4314.00    0.84727   0.85261   69.001
 4315.00    0.84638   0.85559   69.034
 4316.00    0.84860   0.85880   68.951
 4317.00    0.84157   0.86179   69.229
 4318.00    0.84265   0.86392   69.171
 4319.00    0.84112   0.86467   69.216
 4320.00    0.83504   0.86397   69.419
 4321.00    0.84180   0.86204   69.118
 4322.00    0.85270   0.85913   68.658
 4323.00    0.85772   0.85560   68.395
 4324.00    0.86160   0.85172   68.215
 4325.00    0.84912   0.84808   68.634
 4326.00    0.84876   0.84558   68.572
 4327.00    0.85040   0.84479   68.453
 4328.00    0.84232   0.84579   68.718
 4329.00    0.85019   0.84762   68.364
 4330.00    0.85977   0.84893   67.934
 4331.00    0.86568   0.84858   67.655
 4332.00    0.86082   0.84627   67.815
 4333.00    0.85481   0.84196   68.012
 4334.00    0.84956   0.83535   68.176
 4335.00    0.84667   0.82559   68.287
 4336.00    0.85543   0.81078   67.918
 4337.00    0.95210   0.78969   -1.000
 4338.00    1.87466   0.76248   -1.000
 4339.00    3.78939   0.73212   -1.000
 4340.00    4.72654   0.70473    0.000
 4341.00    4.73325   0.68739    0.000
 4342.00    3.94110   0.68523    0.000
 4343.00    2.06789   0.69858    0.000
 4344.00    0.99317   0.72273    0.000
 4345.00    0.83151   0.75034    0.000
 4346.00    0.81230   0.77527    0.000
 4347.00    0.80367   0.79426    0.000
 4348.00    0.80839   0.80697    0.000
 4349.00    0.79589   0.81471    0.000
 4350.00    0.79492   0.81865    0.000
 4351.00    0.78779   0.82103    0.000
 4352.00    0.79632   0.82320    0.000
 4353.00    0.80378   0.82606    0.000
 4354.00    0.81973   0.82996    0.000
 4355.00    0.83270   0.83379    0.000
 4356.00    0.82925   0.83715    0.000
 4357.00    0.82480   0.83953    0.000
 4358.00    0.82237   0.84096    0.000
 4359.00    0.83785   0.84151    0.000
 4360.00    0.84350   0.84147    0.000
 4361.00    0.84687   0.84120    0.000
 4362.00    0.86465   0.84095    0.000
 4363.00    0.86375   0.84104    0.000
 4364.00    0.87432   0.84156    0.000
 4365.00    0.85994   0.84210    0.000
 4366.00    0.82846   0.84214    0.000
 4367.00    0.82466   0.84106   69.080
 4368.00    0.81608   0.83865   69.443
 4369.00    0.82560   0.83545   69.031
 4370.00    0.82663   0.83179   68.987
 4371.00    0.81104   0.82801   69.676
 4372.00    0.81686   0.82436   69.436
 4373.00    0.82176   0.82088   69.255
 4374.00    0.81764   0.81790   69.448
 4375.00    0.81971   0.81561   69.367
 4376.00    0.81829   0.81404   69.457
 4377.00    0.81718   0.81317   69.507
 4378.00    0.82167   0.81273   69.352
 4379.00    0.81972   0.81222   69.479
 4380.00    0.82004   0.81100   69.469
 4381.00    0.81326   0.80865   69.755
 4382.00    0.80623   0.80508    0.000
 4383.00    0.80598   0.80081    0.000
 4384.00    0.81231   0.79661    0.000
 4385.00    0.81772   0.79317    0.000
 4386.00    0.82135   0.79080    0.000
 4387.00    0.81036   0.78928    0.000
 4388.00    0.79712   0.78838    0.000
 4389.00    0.79232   0.78827    0.000
 4390.00    0.79486   0.78907    0.000
 4391.00    0.80415   0.79094    0.000
 4392.00    0.80777   0.79360    0.000
 4393.00    0.80595   0.79642   70.191
 4394.00    0.80361   0.79900   70.285
 4395.00    0.80454   0.80125   70.291
 4396.00    0.79113   0.80320   70.894
 4397.00    0.80422   0.80481   70.361
 4398.00    0.81450   0.80593   69.949
 4399.00    0.80654   0.80628   70.337
 4400.00    0.79851   0.80564   70.706
 4401.00    0.81212   0.80402   70.130
 4402.00    0.80828   0.80164   70.360
 4403.00    0.79763   0.79886   70.868
 4404.00    0.79306   0.79599   71.091
 4405.00    0.79707   0.79352   70.966
 4406.00    0.80277   0.79197   70.734
 4407.00    0.79909   0.79150   70.922
 4408.00    0.79534   0.79218   71.088
 4409.00    0.80370   0.79367   70.753
 4410.00    0.80849   0.79550   70.535
 4411.00    0.79661   0.79730   71.053
 4412.00    0.80660   0.79836   70.607
 4413.00    0.80422   0.79812   70.715
 4414.00    0.79953   0.79631   70.900
 4415.00    0.78899   0.79336   71.399
 4416.00    0.76821   0.79038   72.331
 4417.00    0.76649   0.78853   72.323
 4418.00    0.76624   0.78816   72.318
 4419.00    0.76013   0.78884   72.591
 4420.00    0.76351   0.78963   72.415
 4421.00    0.77173   0.78954   72.007
 4422.00    0.78300   0.78827   71.454
 4423.00    0.79235   0.78620   71.022
 4424.00    0.78748   0.78369   71.242
 4425.00    0.77089   0.78133   72.008
 4426.00    0.77868   0.77935   71.662
 4427.00    0.78595   0.77772   71.336
 4428.00    0.78489   0.77642   71.381
 4429.00    0.78063   0.77535   71.626
 4430.00    0.77900   0.77464   71.721
 4431.00    0.78065   0.77441   71.670
 4432.00    0.77607   0.77477   71.932
 4433.00    0.77864   0.77546   71.840
 4434.00    0.77101   0.77627   72.226
 4435.00    0.77352   0.77711   72.164
 4436.00    0.78509   0.77807   71.670
 4437.00    0.77882   0.77954   71.991
 4438.00    0.77529   0.78166   72.171
 4439.00    0.76863   0.78389   72.524
 4440.00    0.77232   0.78558   72.343
 4441.00    0.78135   0.78622   71.941
 4442.00    0.78595   0.78612   71.738
 4443.00    0.78696   0.78605   71.669
 4444.00    0.78896   0.78683   71.600
 4445.00    0.79161   0.78857   71.490
 4446.00    0.77779   0.79078   72.124
 4447.00    0.77490   0.79289   72.266
 4448.00    0.76127   0.79443   72.909
 4449.00    0.77304   0.79546   72.369
 4450.00    0.78180   0.79616   71.933
 4451.00    0.78305   0.79652   71.871
 4452.00    0.78570   0.79632   71.721
 4453.00    0.78513   0.79529   71.772
 4454.00    0.78918   0.79327   71.610
 4455.00    0.78459   0.79068   71.823
 4456.00    0.78511   0.78830   71.788
 4457.00    0.79420   0.78676   71.421
 4458.00    0.79033   0.78611   71.593
 4459.00    0.78298   0.78607   71.954
 4460.00    0.79121   0.78607   71.557
 4461.00    0.79000   0.78574   71.640
 4462.00    0.77946   0.78538   72.164
 4463.00    0.77777   0.78514   72.260
 4464.00    0.78005   0.78502   72.160
 4465.00    0.77910   0.78477    0.000
 4466.00    0.77684   0.78383    0.000
 4467.00    0.78077   0.78162    0.000
 4468.00    0.78128   0.77787    0.000
 4469.00    0.85047   0.77242    0.000
 4470.00    1.00199   0.76584    0.000
 4471.00    1.03608   0.75969    0.000
 4472.00    1.02385   0.75575    0.000
 4473.00    0.95905   0.75539    0.000
 4474.00    0.83777   0.75891    0.000
 4475.00    0.78052   0.76491    0.000
 4476.00    0.77509   0.77120    0.000
 4477.00    0.77564   0.77608    0.000
 4478.00    0.77164   0.77838   72.654
 4479.00    0.76682   0.77787   72.826
 4480.00    0.75860   0.77539   73.225
 4481.00    0.73705   0.77221   -1.000
 4482.00    0.73114   0.76997   -1.000
 4483.00    0.74557   0.76986   73.883
 4484.00    0.76149   0.77212   73.099
 4485.00    0.76988   0.77596   72.706
 4486.00    0.77397   0.77977   72.532
 4487.00    0.78055   0.78220   72.195
 4488.00    0.76711   0.78251   72.883
 4489.00    0.76235   0.78100   73.116
 4490.00    0.76290   0.77871   73.082
 4491.00    0.76876   0.77670   72.844
 4492.00    0.76974   0.77555   72.813
 4493.00    0.77615   0.77493   72.525
 4494.00    0.77397   0.77432   72.632
 4495.00    0.77228   0.77344   72.724
 4496.00    0.76346   0.77245   73.134
 4497.00    0.76539   0.77171   73.079
 4498.00    0.76592   0.77118   73.053
 4499.00    0.75728   0.77045   73.483
 4500.00    0.75784   0.76925   73.473
 4501.00    0.75234   0.76770   73.725
 4502.00    0.75550   0.76642   73.595
 4503.00    0.75995   0.76615   73.367
 4504.00    0.76274   0.76714   73.236
 4505.00    0.75053   0.76896   73.838
 4506.00    0.75001   0.77089   73.862
 4507.00    0.75192   0.77218   73.798
 4508.00    0.75642   0.77245   73.590
 4509.00    0.76308   0.77185   73.271
 4510.00    0.75251   0.77067   73.818
 4511.00    0.74685   0.76923   74.128
 4512.00    0.75806   0.76775   73.546
 4513.00    0.74317   0.76626   74.324
 4514.00    0.73700   0.76484   74.649
 4515.00    0.74698   0.76355   74.193
 4516.00    0.75746   0.76255   73.713
 4517.00    0.76061   0.76192   73.573
 4518.00    0.76487   0.76166   73.416
 4519.00    0.75039   0.76179   74.145
 4520.00    0.74498   0.76219   74.449
 4521.00    0.75250   0.76256   74.143
 4522.00    0.75427   0.76255   74.090
 4523.00    0.74706   0.76183   74.491
 4524.00    0.75112   0.76025   74.351
 4525.00    0.74682   0.75800   74.579
 4526.00    0.74102   0.75537   74.898
 4527.00    0.74456   0.75259   74.776
 4528.00    0.74336   0.74987   74.866
 4529.00    0.73782   0.74738   75.154
 4530.00    0.73844   0.74540   75.193
 4531.00    0.74223   0.74421   75.043
 4532.00    0.73731   0.74377   75.299
 4533.00    0.74129   0.74381   75.121
 4534.00    0.73587   0.74391   75.435
 4535.00    0.74893   0.74376   74.786
 4536.00    0.75851   0.74340   74.325
 4537.00    0.73832   0.74292   75.385
 4538.00    0.73205   0.74184   75.708
 4539.00    0.73118   0.73941   75.775
 4540.00    0.72060   0.73495   76.353
 4541.00    0.71595   0.72872   76.635
 4542.00    0.72487   0.72239   76.149
 4543.00    0.73482   0.71805   75.670
 4544.00    0.74211   0.71721   75.298
 4545.00    0.73257   0.71999   75.787
 4546.00    0.73304   0.72506   75.775
 4547.00    0.74698   0.73059   75.079
 4548.00    0.74273   0.73516   75.300
 4549.00    0.74177   0.73813   75.314
 4550.00    0.73653   0.73956   75.587
 4551.00    0.72612   0.74000   76.138
 4552.00    0.71537   0.73992   76.730
 4553.00    0.70104   0.73967   -1.000
 4554.00    0.70093   0.73949   -1.000
 4555.00    0.72206   0.73949   76.330
 4556.00    0.74337   0.73991   75.284
 4557.00    0.74669   0.74098   75.089
 4558.00    0.74258   0.74260   75.296
 4559.00    0.73534   0.74448   75.693
 4560.00    0.73277   0.74619   75.818
 4561.00    0.74093   0.74729   75.396
 4562.00    0.74218   0.74745   75.344
 4563.00    0.74180   0.74665   75.357
 4564.00    0.72600   0.74503   76.170
 4565.00    0.71586   0.74307   76.717
 4566.00    0.72280   0.74118   76.313
 4567.00    0.71611   0.73967   76.695
 4568.00    0.69928   0.73869   -1.000
 4569.00    0.69855   0.73813   -1.000
 4570.00    0.71113   0.73775   76.936
 4571.00    0.73009   0.73744   75.919
 4572.00    0.72990   0.73706   75.893
 4573.00    0.72236   0.73667   76.228
 4574.00    0.71524   0.73635   76.633
 4575.00    0.71478   0.73610   76.634
 4576.00    0.71690   0.73590   76.522
 4577.00    0.71595   0.73564   76.508
 4578.00    0.72750   0.73512   75.860
 4579.00    0.73566   0.73418   75.412
 4580.00    0.72736   0.73274   75.839
 4581.00    0.72190   0.73096   76.083
 4582.00    0.72550   0.72910   75.864
 4583.00    0.72299   0.72750   75.984
 4584.00    0.72290   0.72639   75.940
 4585.00    0.72015   0.72579   76.046
 4586.00    0.72772   0.72568   75.642
 4587.00    0.73121   0.72604   75.419
 4588.00    0.72617   0.72670   75.660
 4589.00    0.70629   0.72737   76.691
 4590.00    0.71016   0.72772   76.428
 4591.00    0.71674   0.72756   76.081
 4592.00    0.72071   0.72688   75.856
 4593.00    0.71675   0.72584   76.020
 4594.00    0.71307   0.72470   76.173
 4595.00    0.72230   0.72365   75.653
 4596.00    0.71160   0.72291   76.213
 4597.00    0.71697   0.72254   75.904
 4598.00    0.70683   0.72239   76.385
 4599.00    0.71218   0.72230   76.076
 4600.00    0.71730   0.72208    0.000
 4601.00    0.70587   0.72157    0.000
 4602.00    0.70696   0.72075    0.000
 4603.00    0.70099   0.71960    0.000
 4604.00    0.70871   0.71804    0.000
 4605.00    0.71642   0.71620    0.000
 4606.00    0.71033   0.71464    0.000
 4607.00    0.70564   0.71400    0.000
 4608.00    0.69648   0.71445    0.000
 4609.00    0.70219   0.71583    0.000
 4610.00    0.70760   0.71761    0.000
 4611.00    0.70913   0.71903    0.000
 4612.00    0.71123   0.71974    0.000
 4613.00    0.69759   0.71978    0.000
 4614.00    0.69638   0.71946    0.000
 4615.00    0.70929   0.71906    0.000
 4616.00    0.71622   0.71879    0.000
 4617.00    0.71741   0.71866    0.000
 4618.00    0.71722   0.71852    0.000
 4619.00    0.71643   0.71833    0.000
 4620.00    0.71461   0.71818    0.000
 4621.00    0.70117   0.71802    0.000
 4622.00    0.70579   0.71796    0.000
 4623.00    0.71062   0.71801    0.000
 4624.00    0.70825   0.71794    0.000
 4625.00    0.71279   0.71770    0.000
 4626.00    0.71025   0.71718    0.000
 4627.00    0.70251   0.71627    0.000
 4628.00    0.70911   0.71512    0.000
 4629.00    0.70148   0.71381    0.000
 4630.00    0.68630   0.71244    0.000
 4631.00    0.67343   0.71132    0.000
 4632.00    0.66835   0.71067    0.000
 4633.00    0.69382   0.71055    0.000
 4634.00    0.70264   0.71086    0.000
 4635.00    0.69904   0.71121    0.000
 4636.00    0.69754   0.71117    0.000
 4637.00    0.70520   0.71046    0.000
 4638.00    0.68835   0.70907    0.000
 4639.00    0.68790   0.70738    0.000
 4640.00    0.69629   0.70591    0.000
 4641.00    0.69075   0.70506    0.000
 4642.00    0.68895   0.70491    0.000
 4643.00    0.67551   0.70517    0.000
 4644.00    0.67593   0.70507    0.000
 4645.00    0.68366   0.70384    0.000
 4646.00    0.69344   0.70123    0.000
 4647.00    0.68716   0.69759    0.000
 4648.00    0.67494   0.69390    0.000
 4649.00    0.67568   0.69127    0.000
 4650.00    0.66053   0.69039    0.000
 4651.00    0.66952   0.69148    0.000
 4652.00    0.68970   0.69399    0.000
 4653.00    0.70076   0.69686    0.000
 4654.00    0.69625   0.69939    0.000
 4655.00    0.69101   0.70128    0.000
 4656.00    0.69318   0.70260    0.000
 4657.00    0.70397   0.70384    0.000
 4658.00    0.70755   0.70532    0.000
 4659.00    0.70155   0.70699    0.000
 4660.00    0.69608   0.70845    0.000
 4661.00    0.69225   0.70911    0.000
 4662.00    0.69065   0.70860    0.000
 4663.00    0.68907   0.70709    0.000
 4664.00    0.67980   0.70489    0.000
 4665.00    0.68604   0.70233    0.000
 4666.00    0.68586   0.69967    0.000
 4667.00    0.69146   0.69699    0.000
 4668.00    0.68611   0.69448    0.000
 4669.00    0.68537   0.69255    0.000
 4670.00    0.68732   0.69152    0.000
 4671.00    0.69087   0.69142    0.000
 4672.00    0.68228   0.69198    0.000
 4673.00    0.68323   0.69276    0.000
 4674.00    0.67915   0.69336    0.000
 4675.00    0.67347   0.69360    0.000
 4676.00    0.66392   0.69345    0.000
 4677.00    0.67081   0.69295    0.000
 4678.00    0.67118   0.69212    0.000
 4679.00    0.68153   0.69082    0.000
 4680.00    0.68146   0.68900    0.000
 4681.00    0.68564   0.68670    0.000
 4682.00    0.67304   0.68387    0.000
 4683.00    0.67144   0.68055    0.000
 4684.00    0.67152   0.67667    0.000
 4685.00    0.66225   0.67229    0.000
 4686.00    0.65458   0.66792    0.000
 4687.00    0.65795   0.66460    0.000
 4688.00    0.66402   0.66347    0.000
 4689.00    0.67550   0.66510    0.000
 4690.00    0.68105   0.66896    0.000
 4691.00    0.68551   0.67381    0.000
 4692.00    0.68243   0.67830    0.000
 4693.00    0.67612   0.68156    0.000
 4694.00    0.67899   0.68349    0.000
 4695.00    0.67996   0.68436    0.000
 4696.00    0.67365   0.68448    0.000
 4697.00    0.67514   0.68400    0.000
 4698.00    0.66978   0.68292    0.000
 4699.00    0.67262   0.68129    0.000
 4700.00    0.68131   0.67938    0.000
 4701.00    0.67965   0.67759    0.000
 4702.00    0.68280   0.67616    0.000
 4703.00    0.67103   0.67507    0.000
 4704.00    0.67265   0.67433    0.000
 4705.00    0.68167   0.67383    0.000
 4706.00    0.68026   0.67333    0.000
 4707.00    0.68070   0.67274    0.000
 4708.00    0.67366   0.67198    0.000
 4709.00    0.67006   0.67095    0.000
 4710.00    0.66931   0.66971    0.000
 4711.00    0.68515   0.66836    0.000
 4712.00    0.68999   0.66682    0.000
 4713.00    0.68519   0.66516    0.000
 4714.00    0.67928   0.66372    0.000
 4715.00    0.66589   0.66290    0.000
 4716.00    0.66517   0.66301    0.000
 4717.00    0.67016   0.66422    0.000
 4718.00    0.67619   0.66608    0.000
 4719.00    0.68174   0.66799    0.000
 4720.00    0.67835   0.66953    0.000
 4721.00    0.66697   0.67044    0.000
 4722.00    0.66542   0.67071    0.000
 4723.00    0.66977   0.67052    0.000
 4724.00    0.66684   0.66999    0.000
 4725.00    0.66207   0.66912    0.000
 4726.00    0.66340   0.66772    0.000
 4727.00    0.66927   0.66559    0.000
 4728.00    0.67449   0.66279    0.000
 4729.00    0.66134   0.65973    0.000
 4730.00    0.65505   0.65706    0.000
 4731.00    0.65904   0.65539    0.000
 4732.00    0.66700   0.65499    0.000
 4733.00    0.66822   0.65559    0.000
 4734.00    0.66211   0.65654    0.000
 4735.00    0.66161   0.65729    0.000
 4736.00    0.66116   0.65746    0.000
 4737.00    0.65862   0.65716    0.000
 4738.00    0.65183   0.65672    0.000
 4739.00    0.66405   0.65626    0.000
 4740.00    0.65956   0.65583    0.000
 4741.00    0.66355   0.65533    0.000
 4742.00    0.65970   0.65464    0.000
 4743.00    0.65677   0.65390    0.000
 4744.00    0.65952   0.65329    0.000
 4745.00    0.65823   0.65293    0.000
 4746.00    0.65701   0.65293    0.000
 4747.00    0.66909   0.65323    0.000
 4748.00    0.66853   0.65370    0.000
 4749.00    0.65322   0.65419    0.000
 4750.00    0.64850   0.65455    0.000
 4751.00    0.65706   0.65453   79.962
 4752.00    0.65940   0.65393   79.830
 4753.00    0.66144   0.65276   79.684
 4754.00    0.65023   0.65117   80.314
 4755.00    0.65688   0.64944   79.882
 4756.00    0.65912   0.64790   79.739
 4757.00    0.65655   0.64670   79.882
 4758.00    0.65645   0.64583   79.852
 4759.00    0.65628   0.64520   79.836
 4760.00    0.64339   0.64458   80.600
 4761.00    0.64121   0.64375   80.708
 4762.00    0.65079   0.64252   80.083
 4763.00    0.64821   0.64089   80.237
 4764.00    0.64871   0.63901   80.197
 4765.00    0.64914   0.63727   80.142
 4766.00    0.64487   0.63606   80.424
 4767.00    0.65033   0.63559   80.080
 4768.00    0.65126   0.63592   79.981
 4769.00    0.65015   0.63693   80.074
 4770.00    0.65070   0.63827   80.014
 4771.00    0.66078   0.63943   79.391
 4772.00    0.65317   0.64002   79.851
 4773.00    0.64430   0.64018   80.384
 4774.00    0.64860   0.64029   80.118
 4775.00    0.65070   0.64063   79.977
 4776.00    0.64392   0.64126   80.394
 4777.00    0.64174   0.64198   80.529
 4778.00    0.64846   0.64232   80.084
 4779.00    0.64674   0.64202   80.184
 4780.00    0.64534   0.64116   80.251
 4781.00    0.64455   0.63992   80.287
 4782.00    0.63699   0.63852   80.745
 4783.00    0.65064   0.63711   79.927
 4784.00    0.64295   0.63570   80.371
 4785.00    0.63691   0.63441   80.731
 4786.00    0.64401   0.63335   80.306
 4787.00    0.64478   0.63266   80.239
 4788.00    0.63933   0.63242   80.573
 4789.00    0.64399   0.63247   80.263
 4790.00    0.65269   0.63275   79.728
 4791.00    0.64774   0.63328   80.030
 4792.00    0.64587   0.63405   80.168
 4793.00    0.63589   0.63505   80.763
 4794.00    0.63723   0.63619   80.679
 4795.00    0.64501   0.63725   80.210
 4796.00    0.63701   0.63797   80.700
 4797.00    0.64012   0.63813   80.516
 4798.00    0.64247   0.63761   80.364
 4799.00    0.64004   0.63656   80.525
 4800.00    0.64318   0.63526   80.313
 4801.00    0.63771   0.63420   80.677
 4802.00    0.63431   0.63363   80.897
 4803.00    0.63943   0.63351   80.549
 4804.00    0.63228   0.63361   81.044
 4805.00    0.62765   0.63358   81.294
 4806.00    0.63465   0.63323   80.828
 4807.00    0.64262   0.63261   80.334
 4808.00    0.63975   0.63188   80.490
 4809.00    0.63140   0.63122   81.005
 4810.00    0.63029   0.63072   81.068
 4811.00    0.63617   0.63037   80.636
 4812.00    0.63901   0.63018   80.452
 4813.00    0.63236   0.63009   80.837
 4814.00    0.63369   0.63012   80.726
 4815.00    0.63255   0.63037   80.792
 4816.00    0.63802   0.63079   80.428
 4817.00    0.63505   0.63128   80.572
 4818.00    0.63613   0.63174   80.499
 4819.00    0.62929   0.63205   80.906
 4820.00    0.62435   0.63206   81.205
 4821.00    0.63148   0.63165   80.731
 4822.00    0.63492   0.63074   80.515
 4823.00    0.63000   0.62933   80.811
 4824.00    0.63576   0.62756   80.438
 4825.00    0.64089   0.62572   80.092
 4826.00    0.63733   0.62417   80.298
 4827.00    0.63028   0.62306   80.745
 4828.00    0.62623   0.62228   80.975
 4829.00    0.62501   0.62157   81.079
 4830.00    0.62845   0.62078   80.822
 4831.00    0.63228   0.61992   80.548
 4832.00    0.64295   0.61906   79.882
 4833.00    0.63288   0.61831   80.458
 4834.00    0.62644   0.61785   80.832
 4835.00    0.62579   0.61775   80.850
 4836.00    0.63635   0.61792   80.121
 4837.00    0.63908   0.61822   79.928
 4838.00    0.63690   0.61846   79.962
 4839.00    0.64156   0.61842   79.608
 4840.00    0.63733   0.61804   79.817
 4841.00    0.63639   0.61743   79.801
 4842.00    0.63596   0.61669   79.786
 4843.00    0.64117   0.61587   79.376
 4844.00    0.64183   0.61507   79.269
 4845.00    0.65119   0.61434   78.643
 4846.00    0.65745   0.61369   -1.000
 4847.00    0.64735   0.61299   78.717
 4848.00    0.65003   0.61203   78.501
 4849.00    0.65739   0.61078   -1.000
 4850.00    0.65510   0.60927   -1.000
 4851.00    0.64920   0.60750   78.369
 4852.00    0.66077   0.60536   -1.000
 4853.00    0.66783   0.60268   -1.000
 4854.00    0.66746   0.59908   -1.000
 4855.00    0.67597   0.59413   -1.000
 4856.00    0.68050   0.58755   -1.000
 4857.00    0.72544   0.57902    0.000
 4858.00    1.32257   0.56814    0.000
 4859.00    4.19003   0.55453    0.000
 4860.00    8.40051   0.53848    0.000
 4861.00   10.05444   0.52144    0.000
 4862.00    9.79516   0.50622    0.000
 4863.00    7.20398   0.49641    0.000
 4864.00    2.70390   0.49461    0.000
 4865.00    0.86410   0.50127    0.000
 4866.00    0.68274   0.51460    0.000
 4867.00    0.67059   0.53126    0.000
 4868.00    0.65358   0.54771    0.000
 4869.00    0.64743   0.56153    0.000
 4870.00    0.64513   0.57165    0.000
 4871.00    0.64642   0.57822   -1.000
 4872.00    0.64285   0.58215   -1.000
 4873.00    0.63429   0.58464   -1.000
 4874.00    0.63581   0.58676   -1.000
 4875.00    0.62828   0.58906   -1.000
 4876.00    0.62562   0.59157   -1.000
 4877.00    0.62601   0.59413   80.380
 4878.00    0.61918   0.59645   80.830
 4879.00    0.62240   0.59833   80.658
 4880.00    0.62493   0.59966   80.493
 4881.00    0.62162   0.60039   80.695
 4882.00    0.62246   0.60052   80.655
 4883.00    0.61925   0.60016   80.854
 4884.00    0.61133   0.59948   81.325
 4885.00    0.60730   0.59864   81.551
 4886.00    0.59777   0.59771   82.170
 4887.00    0.60914   0.59682   81.380
 4888.00    0.61429   0.59607   81.001
 4889.00    0.60534   0.59543   81.579
 4890.00    0.61267   0.59482   81.051
 4891.00    0.61270   0.59429   81.022
 4892.00    0.60776   0.59410   81.314
 4893.00    0.61065   0.59468   81.106
 4894.00    0.61096   0.59632   81.072
 4895.00    0.61381   0.59886   80.872
 4896.00    0.61029   0.60174   81.094
 4897.00    0.61027   0.60432   81.108
 4898.00    0.60728   0.60612   81.346
 4899.00    0.60777   0.60691   81.366
 4900.00    0.61454   0.60676   80.941
 4901.00    0.60925   0.60595   81.327
 4902.00    0.60848   0.60492   81.416
 4903.00    0.61195   0.60406   81.218
 4904.00    0.60572   0.60359   81.704
 4905.00    0.59665   0.60366   82.336
 4906.00    0.60821   0.60424   81.587
 4907.00    0.61094   0.60496   81.468
 4908.00    0.60122   0.60523   82.164
 4909.00    0.60186   0.60466   82.194
 4910.00    0.59788   0.60324   82.507
 4911.00    0.60384   0.60138   82.147
 4912.00    0.60896   0.59976   81.833
 4913.00    0.61292   0.59882   81.599
 4914.00    0.61691   0.59854    0.000
 4915.00    0.61066   0.59863    0.000
 4916.00    0.60490   0.59859    0.000
 4917.00    0.59740   0.59775    0.000
 4918.00    0.59663   0.59557    0.000
 4919.00    0.61449   0.59180    0.000
 4920.00    0.64107   0.58673    0.000
 4921.00    0.65022   0.58125    0.000
 4922.00    0.63274   0.57661    0.000
 4923.00    0.63287   0.57393    0.000
 4924.00    0.61278   0.57378    0.000
 4925.00    0.59398   0.57594    0.000
 4926.00    0.59929   0.57967    0.000
 4927.00    0.59933   0.58407    0.000
 4928.00    0.59575   0.58836    0.000
 4929.00    0.60499   0.59207   82.706
 4930.00    0.60929   0.59495   82.448
 4931.00    0.60423   0.59684   82.845
 4932.00    0.60591   0.59768   82.764
 4933.00    0.59550   0.59748   83.528
 4934.00    0.59759   0.59644   83.446
 4935.00    0.60159   0.59493   83.207
 4936.00    0.59641   0.59334   83.568
 4937.00    0.59581   0.59177   83.679
 4938.00    0.59428   0.59019   83.807
 4939.00    0.59412   0.58870   83.865
 4940.00    0.59823   0.58769   83.600
 4941.00    0.59305   0.58754   84.022
 4942.00    0.59612   0.58831   83.877
 4943.00    0.59483   0.58973    0.000
 4944.00    0.59801   0.59134    0.000
 4945.00    0.59878   0.59269    0.000
 4946.00    0.59905   0.59351    0.000
 4947.00    0.58184   0.59391    0.000
 4948.00    0.59866   0.59414    0.000
 4949.00    0.60869   0.59439    0.000
 4950.00    0.60610   0.59471    0.000
 4951.00    0.61357   0.59500    0.000
 4952.00    0.61685   0.59505    0.000
 4953.00    0.61909   0.59462    0.000
 4954.00    0.62259   0.59357    0.000
 4955.00    0.72901   0.59180    0.000
 4956.00    1.62217   0.58920    0.000
 4957.00    4.19342   0.58595    0.000
 4958.00    6.47184   0.58262    0.000
 4959.00    6.92965   0.58007    0.000
 4960.00    6.13442   0.57903    0.000
 4961.00    3.61258   0.57960    0.000
 4962.00    1.22376   0.58121    0.000
 4963.00    0.67376   0.58293    0.000
 4964.00    0.62017   0.58393    0.000
 4965.00    0.61009   0.58384    0.000
 4966.00    0.60262   0.58285    0.000
 4967.00    0.60601   0.58149    0.000
 4968.00    0.59980   0.58026    0.000
 4969.00    0.59655   0.57950    0.000
 4970.00    0.59517   0.57939    0.000
 4971.00    0.59561   0.57992    0.000
 4972.00    0.59598   0.58095   84.599
 4973.00    0.59355   0.58221   84.791
 4974.00    0.59408   0.58339   84.776
 4975.00    0.59552   0.58421   84.680
 4976.00    0.59418   0.58446   84.793
 4977.00    0.58955   0.58406   85.128
 4978.00    0.59330   0.58307   84.874
 4979.00    0.58972   0.58160   85.166
 4980.00    0.58087   0.57975   85.803
 4981.00    0.57753   0.57754   86.066
 4982.00    0.57895   0.57504   85.971
 4983.00    0.58356   0.57242   85.632
 4984.00    0.60025   0.57011   84.413
 4985.00    0.60928   0.56862   83.804
 4986.00    0.61182   0.56833   -1.000
 4987.00    0.61455   0.56928   -1.000
 4988.00    0.60615   0.57104   -1.000
 4989.00    0.58453   0.57291   85.545
 4990.00    0.59018   0.57430   85.098
 4991.00    0.60105   0.57500   84.333
 4992.00    0.60248   0.57517   84.216
 4993.00    0.60151   0.57520   84.267
 4994.00    0.60870   0.57537   83.758
 4995.00    0.61185   0.57570    0.000
 4996.00    0.61799   0.57600    0.000
 4997.00    0.62314   0.57604    0.000
 4998.00    0.62669   0.57558    0.000
 4999.00    0.63709   0.57441    0.000
 5000.00    0.64695   0.57250    0.000
 5001.00    0.65865   0.57017    0.000
 5002.00    0.69946   0.56800    0.000
 5003.00    1.06107   0.56625    0.000
 5004.00    4.02877   0.56499    0.000
 5005.00   12.02153   0.56410    0.000
 5006.00   18.53863   0.56348    0.000
 5007.00   19.61777   0.56307    0.000
 5008.00   16.96147   0.56295    0.000
 5009.00    9.26131   0.56325    0.000
 5010.00    2.38243   0.56378    0.000
 5011.00    0.80701   0.56400   -1.000
 5012.00    0.67815   0.56339   -1.000
 5013.00    0.67947   0.56171   -1.000
 5014.00    0.75434   0.55913   -1.000
 5015.00    0.78707   0.55619   -1.000
 5016.00    0.77831   0.55366   -1.000
 5017.00    0.73952   0.55212   -1.000
 5018.00    0.66339   0.55190   -1.000
 5019.00    0.61434   0.55287   -1.000
 5020.00    0.60775   0.55461   -1.000
 5021.00    0.59663   0.55656   -1.000
 5022.00    0.58479   0.55834   85.049
 5023.00    0.59368   0.55977   84.390
 5024.00    0.59762   0.56091   84.123
 5025.00    0.58873   0.56189   84.761
 5026.00    0.57987   0.56271   85.391
 5027.00    0.57637   0.56326   85.630
 5028.00    0.58098   0.56353   85.262
 5029.00    0.58186   0.56370   85.201
 5030.00    0.57982   0.56402   85.317
 5031.00    0.57934   0.56468   85.347
 5032.00    0.58183   0.56566   85.144
 5033.00    0.58376   0.56668   85.004
 5034.00    0.57623   0.56737   85.521
 5035.00    0.56959   0.56734   86.035
 5036.00    0.56829   0.56641   86.104
 5037.00    0.57295   0.56471   85.741
 5038.00    0.57382   0.56257   85.642
 5039.00    0.57802   0.56018   85.333
 5040.00    0.58319   0.55762   84.928
 5041.00    0.57951   0.55512   85.173
 5042.00    0.57191   0.55323   85.719
 5043.00    0.57236   0.55259   85.643
 5044.00    0.55733   0.55347   86.796
 5045.00    0.55040   0.55563   87.319
 5046.00    0.55477   0.55829   86.972
 5047.00    0.55424   0.56045   86.985
 5048.00    0.55976   0.56144   86.558
 5049.00    0.56780   0.56111   85.930
 5050.00    0.57244   0.55987   85.561
 5051.00    0.56183   0.55838   86.342
 5052.00    0.56328   0.55731   86.221
 5053.00    0.56972   0.55703   85.727
 5054.00    0.56718   0.55756   85.918
 5055.00    0.56789   0.55869   85.809
 5056.00    0.57158   0.56009   85.560
 5057.00    0.56767   0.56146   85.860
 5058.00    0.56324   0.56267   86.197
 5059.00    0.56419   0.56373   86.093
 5060.00    0.56569   0.56464   85.996
 5061.00    0.55827   0.56540   86.565
 5062.00    0.55702   0.56584   86.680
 5063.00    0.55428   0.56570   86.899
 5064.00    0.55802   0.56473   86.636
 5065.00    0.55423   0.56298   86.942
 5066.00    0.56802   0.56077   85.887
 5067.00    0.56705   0.55854   85.954
 5068.00    0.55855   0.55669   86.647
 5069.00    0.55462   0.55545   86.970
 5070.00    0.55294   0.55484   87.115
 5071.00    0.55214   0.55467   87.197
 5072.00    0.55294   0.55468   87.183
 5073.00    0.55118   0.55463   87.344
 5074.00    0.55420   0.55446   87.155
 5075.00    0.55412   0.55425   87.197
 5076.00    0.55600   0.55406   87.069
 5077.00    0.56228   0.55377   86.589
 5078.00    0.55774   0.55321   86.969
 5079.00    0.55177   0.55219   87.464
 5080.00    0.55608   0.55076   87.156
 5081.00    0.55283   0.54919   87.435
 5082.00    0.55122   0.54791   87.577
 5083.00    0.54825   0.54723   87.826
 5084.00    0.54264   0.54721   88.295
 5085.00    0.54153   0.54780   88.355
 5086.00    0.54500   0.54879   88.052
 5087.00    0.54361   0.54998   88.190
 5088.00    0.54486   0.55116   88.060
 5089.00    0.55069   0.55224   87.569
 5090.00    0.54847   0.55318   87.737
 5091.00    0.55176   0.55395   87.429
 5092.00    0.55456   0.55458   87.182
 5093.00    0.54892   0.55507   87.603
 5094.00    0.54874   0.55531   87.611
 5095.00    0.55389   0.55511   87.174
 5096.00    0.55780   0.55426   86.847
 5097.00    0.55115   0.55273   87.336
 5098.00    0.55062   0.55075   87.364
 5099.00    0.55397   0.54870   87.099
 5100.00    0.55553   0.54707   86.975
 5101.00    0.55866   0.54623   86.712
 5102.00    0.55268   0.54622   87.197
 5103.00    0.55351   0.54672   87.153
 5104.00    0.55239   0.54727   87.255
 5105.00    0.55526   0.54746   87.022
 5106.00    0.55585   0.54715   86.999
 5107.00    0.55676   0.54640   86.970
 5108.00    0.54550   0.54540   87.867
 5109.00    0.54278   0.54437   88.125
 5110.00    0.54562   0.54359   87.897
 5111.00    0.54725   0.54324   87.773
 5112.00    0.54911   0.54345   87.637
 5113.00    0.55103   0.54417   87.528
 5114.00    0.54378   0.54523   88.112
 5115.00    0.53713   0.54645   88.627
 5116.00    0.53298   0.54769   89.006
 5117.00    0.54082   0.54886   88.350
 5118.00    0.53970   0.54982   88.424
 5119.00    0.53457   0.55039   88.828
 5120.00    0.54243   0.55037   88.169
 5121.00    0.54687   0.54969   87.768
 5122.00    0.54801   0.54837   87.693
 5123.00    0.54468   0.54653   87.933
 5124.00    0.53453   0.54440   88.744
 5125.00    0.52906   0.54231   89.190
 5126.00    0.53241   0.54058   88.888
 5127.00    0.53234   0.53941   88.870
 5128.00    0.53254   0.53881   88.815
 5129.00    0.53279   0.53870   88.789
 5130.00    0.54287   0.53895   87.934
 5131.00    0.54860   0.53950   87.450
 5132.00    0.53905   0.54029   88.190
 5133.00    0.54344   0.54125   87.853
 5134.00    0.55332   0.54224   87.042
 5135.00    0.54098   0.54307   87.992
 5136.00    0.54501   0.54358   87.657
 5137.00    0.54337   0.54365   87.764
 5138.00    0.53780   0.54320   88.193
 5139.00    0.53925   0.54232   88.090
 5140.00    0.53246   0.54129   88.596
 5141.00    0.53426   0.54038   88.441
 5142.00    0.53218   0.53974   88.612
 5143.00    0.53403   0.53933   88.462
 5144.00    0.53982   0.53897   87.980
 5145.00    0.54463   0.53850   87.570
 5146.00    0.53488   0.53777   88.347
 5147.00    0.52706   0.53680   88.988
 5148.00    0.53134   0.53577   88.634
 5149.00    0.54121   0.53494   87.817
 5150.00    0.52517   0.53437   89.140
 5151.00    0.53159   0.53393   88.567
 5152.00    0.53766   0.53346   88.051
 5153.00    0.52962   0.53288   88.751
 5154.00    0.52562   0.53238   89.060
 5155.00    0.51927   0.53226   89.591
 5156.00    0.51364   0.53284   90.055
 5157.00    0.51395   0.53426   90.012
 5158.00    0.51676   0.53638   89.755
 5159.00    0.52861   0.53872   88.724
 5160.00    0.52286   0.54066   89.168
 5161.00    0.52820   0.54164   88.726
 5162.00    0.53235   0.54138   88.338
 5163.00    0.53108   0.53981   88.407
 5164.00    0.53524   0.53706   88.049
 5165.00    0.53423   0.53327   88.099
 5166.00    0.53722   0.52855   87.776
 5167.00    0.53616   0.52320   87.877
 5168.00    0.52809   0.51786   88.533
 5169.00    0.52831   0.51345   88.495
 5170.00    0.52888   0.51053   88.412
 5171.00    0.52206   0.50898   88.929
 5172.00    0.52159   0.50826   88.947
 5173.00    0.52970   0.50796   88.222
 5174.00    0.53411   0.50829   87.837
 5175.00    0.52470   0.50961   88.590
 5176.00    0.51389   0.51207   89.489
 5177.00    0.51889   0.51523   89.039
 5178.00    0.52567   0.51831   88.427
 5179.00    0.52676   0.52059   88.302
 5180.00    0.52834   0.52141   88.144
 5181.00    0.52585   0.52051   88.317
 5182.00    0.52577   0.51795   88.321
 5183.00    0.52421   0.51429   88.393
 5184.00    0.51904   0.51060   88.822
 5185.00    0.52652   0.50813   88.185
 5186.00    0.52693   0.50782   88.128
 5187.00    0.52526   0.50973   88.251
 5188.00    0.52220   0.51305   88.480
 5189.00    0.52543   0.51664   88.202
 5190.00    0.52515   0.51946    0.000
 5191.00    0.53237   0.52101    0.000
 5192.00    0.53182   0.52120    0.000
 5193.00    0.52134   0.52042    0.000
 5194.00    0.52634   0.51935    0.000
 5195.00    0.52723   0.51862    0.000
 5196.00    0.53590   0.51850    0.000
 5197.00    0.54399   0.51902    0.000
 5198.00    0.54769   0.52004    0.000
 5199.00    0.54837   0.52126    0.000
 5200.00    0.53540   0.52228    0.000
 5201.00    0.53106   0.52271    0.000
 5202.00    0.52229   0.52228    0.000
 5203.00    0.52163   0.52084    0.000
 5204.00    0.51761   0.51843    0.000
 5205.00    0.50973   0.51520    0.000
 5206.00    0.50983   0.51158   89.415
 5207.00    0.51345   0.50820   89.099
 5208.00    0.52114   0.50565   88.417
 5209.00    0.52423   0.50437   88.164
 5210.00    0.52389   0.50454   88.196
 5211.00    0.51497   0.50613   88.907
 5212.00    0.50710   0.50886   89.575
 5213.00    0.50712   0.51213   89.561
 5214.00    0.51243   0.51523   89.068
 5215.00    0.51872   0.51751   88.506
 5216.00    0.51517   0.51873   88.759
 5217.00    0.51855   0.51912   88.450
 5218.00    0.52300   0.51923   88.042
 5219.00    0.51341   0.51954   88.863
 5220.00    0.51645   0.52017   88.568
 5221.00    0.51840   0.52086   88.419
 5222.00    0.51557   0.52109   88.629
 5223.00    0.52432   0.52027   87.831
 5224.00    0.51885   0.51803   88.323
 5225.00    0.51010   0.51458   89.010
 5226.00    0.51454   0.51074   88.606
 5227.00    0.52035   0.50778   88.110
 5228.00    0.51979   0.50644   88.130
 5229.00    0.51787   0.50689   88.267
 5230.00    0.51012   0.50888   88.916
 5231.00    0.50618   0.51149   89.249
 5232.00    0.51183   0.51377   88.705
 5233.00    0.51039   0.51515   88.834
 5234.00    0.50587   0.51560   89.246
 5235.00    0.50919   0.51563   88.912
 5236.00    0.51152   0.51588   88.671
 5237.00    0.50438   0.51669   89.296
 5238.00    0.50125   0.51801   89.531
 5239.00    0.50507   0.51946   89.199
 5240.00    0.50500   0.52062   89.200
 5241.00    0.50071   0.52126   89.558
 5242.00    0.51509   0.52144   88.302
 5243.00    0.51484   0.52134   88.293
 5244.00    0.51105   0.52107   88.584
 5245.00    0.50564   0.52056   89.041
 5246.00    0.50619   0.51958   88.957
 5247.00    0.51172   0.51803   88.435
 5248.00    0.51429   0.51608   88.192
 5249.00    0.50532   0.51411   88.960
 5250.00    0.50608   0.51250   88.874
 5251.00    0.50661   0.51141   88.774
 5252.00    0.49706   0.51089   89.613
 5253.00    0.49859   0.51087   89.437
 5254.00    0.51356   0.51119   88.142
 5255.00    0.51004   0.51173   88.406
 5256.00    0.50887   0.51252   88.477
 5257.00    0.50904   0.51361   88.415
 5258.00    0.50546   0.51495   88.742
 5259.00    0.51075   0.51618   88.225
 5260.00    0.51103   0.51675   88.194
 5261.00    0.50873   0.51618   88.374
 5262.00    0.51143   0.51425   88.121
 5263.00    0.51687   0.51113   87.667
 5264.00    0.51360   0.50724   87.938
 5265.00    0.51030   0.50323   88.207
 5266.00    0.50135   0.49970   88.970
 5267.00    0.50554   0.49704   88.604
 5268.00    0.51496   0.49530   87.791
 5269.00    0.51162   0.49426   88.041
 5270.00    0.50940   0.49365   88.252
 5271.00    0.50940   0.49355   88.264
 5272.00    0.50851   0.49426   88.331
 5273.00    0.50299   0.49596   88.764
 5274.00    0.50758   0.49843   88.382
 5275.00    0.50919   0.50109   88.240
 5276.00    0.50852   0.50363   88.245
 5277.00    0.50995   0.50592   88.146
 5278.00    0.50028   0.50794   88.959
 5279.00    0.50135   0.50965   88.870
 5280.00    0.49822   0.51071   89.074
 5281.00    0.49838   0.51089   89.061
 5282.00    0.50262   0.51015   88.672
 5283.00    0.49954   0.50886   88.909
 5284.00    0.50085   0.50764   88.780
 5285.00    0.50682   0.50717   88.260
 5286.00    0.50726   0.50782   88.144
 5287.00    0.50437   0.50943   88.397
 5288.00    0.49875   0.51144   88.890
 5289.00    0.49838   0.51322   88.902
 5290.00    0.49977   0.51445   88.772
 5291.00    0.49626   0.51512   89.051
 5292.00    0.49648   0.51531   89.007
 5293.00    0.49738   0.51507   88.901
 5294.00    0.49799   0.51440   88.856
 5295.00    0.49832   0.51323   88.851
 5296.00    0.49876   0.51144   88.804
 5297.00    0.49550   0.50904   89.099
 5298.00    0.49672   0.50630   88.954
 5299.00    0.49596   0.50380   89.049
 5300.00    0.49668   0.50212   88.956
